real main.em.dem.neu.CCpPlaWa[27](t) = [1971, 
21.42857,
21.42857,
21.42857,
21.42857,
21.42857,
21.42857,
21.42857,
21.42857,
21.42857,
21.42857,
21.42857,
21.42857,
21.42857,
21.42857,
21.42857,
21.42857,
21.42857,
21.42857,
21.42857,
21.42857,
21.42857,
21.42857,
21.42857,
21.42857,
21.42857,
21.42857,
0.00000,
1972, 
21.42857,
21.42857,
21.42857,
21.42857,
21.42857,
21.42857,
21.42857,
21.42857,
21.42857,
21.42857,
21.42857,
21.42857,
21.42857,
21.42857,
21.42857,
21.42857,
21.42857,
21.42857,
21.42857,
21.42857,
21.42857,
21.42857,
21.42857,
21.42857,
21.42857,
21.42857,
21.42857,
1973, 
19.47283,
19.47212,
17.94446,
17.8065,
19.44883,
19.47675,
19.43798,
19.47369,
19.4719,
21.78716,
19.45538,
19.11572,
19.4623,
18.62883,
19.45753,
19.40189,
18.99923,
19.50445,
19.4629,
19.43057,
17.04424,
19.42742,
19.46617,
19.03708,
16.91058,
19.46902,
19.37362,
1974, 
19.57566,
19.57565,
18.04456,
16.75057,
19.50672,
19.57978,
19.52865,
19.57047,
19.58998,
21.79531,
19.53165,
19.21642,
19.56458,
18.93623,
19.51558,
18.87436,
18.34974,
19.61607,
19.51136,
19.43929,
17.28199,
19.04326,
19.5603,
19.38311,
17.11101,
19.55496,
19.3741,
1975, 
19.57485,
19.58175,
18.0139,
16.86592,
19.49141,
19.5729,
19.5016,
19.52482,
19.57371,
21.83698,
19.5377,
19.21735,
19.55476,
18.93431,
19.49765,
18.86878,
18.3387,
19.63092,
19.49101,
19.44596,
17.30653,
19.02609,
19.56834,
19.38633,
17.08792,
19.54389,
19.36915,
1976, 
19.50322,
19.51068,
17.86866,
16.69108,
19.43539,
19.50352,
19.43962,
19.48202,
19.48995,
21.83995,
19.47153,
19.14416,
19.47741,
18.87678,
19.43232,
18.74785,
18.2482,
19.49267,
19.4287,
19.38773,
17.22039,
18.96931,
19.49613,
19.31781,
16.93726,
19.49884,
19.28917,
1977, 
19.33126,
19.42717,
17.72793,
16.45202,
19.37481,
19.4227,
17.95374,
19.39824,
19.40137,
21.85654,
19.39042,
19.07097,
19.39868,
18.80807,
19.35296,
18.58838,
18.10434,
19.42084,
19.36693,
19.34644,
17.22271,
18.91413,
19.41852,
19.24664,
16.73077,
19.42709,
19.18073,
1978, 
19.30789,
19.37293,
17.63606,
16.2767,
19.3411,
19.36842,
18.04004,
19.35479,
19.35397,
21.84828,
19.34397,
19.03386,
19.35555,
18.7793,
19.30429,
18.46783,
18.01291,
19.35807,
19.33307,
19.31947,
17.26137,
18.97414,
19.36759,
19.20651,
16.74539,
19.37841,
19.11832,
1979, 
19.26559,
19.34466,
17.54775,
16.19553,
19.32454,
19.3418,
17.80752,
19.33669,
19.33605,
21.85979,
19.31609,
19.02172,
19.33397,
18.77387,
19.27626,
18.39307,
17.96787,
19.33111,
19.31769,
19.30766,
17.33779,
18.91142,
19.34116,
19.19135,
16.63716,
19.35329,
19.08069,
1980, 
19.23879,
19.33149,
17.47728,
16.14712,
19.31625,
19.32811,
17.68567,
19.3249,
19.32543,
21.87071,
19.30481,
19.02127,
19.32425,
18.75995,
19.26194,
18.34746,
17.93696,
19.32701,
19.31118,
19.30394,
17.43378,
18.92336,
19.32858,
19.18385,
16.65343,
19.3401,
19.05614,
1981, 
19.22751,
19.32648,
17.4182,
16.14269,
19.31247,
19.32307,
17.59583,
19.32145,
19.32112,
21.90345,
19.30136,
19.02154,
19.32243,
18.76293,
19.24912,
18.32307,
17.92784,
19.31909,
19.30965,
19.30241,
17.51363,
18.94243,
19.32365,
19.18476,
16.68836,
19.33398,
19.04374,
1982, 
19.08805,
19.32405,
17.36147,
16.09438,
19.31184,
19.32071,
17.51789,
19.32233,
19.31899,
21.93477,
19.29302,
19.01922,
19.32005,
18.65314,
19.23343,
18.30208,
17.9269,
19.31531,
19.3081,
19.30172,
17.57755,
18.95782,
19.32137,
19.1386,
16.66955,
19.33347,
19.02661,
1983, 
19.10196,
19.32202,
17.3561,
16.08789,
19.31061,
19.31925,
17.49686,
19.32107,
19.31716,
21.92184,
19.29731,
19.01975,
19.31819,
18.60432,
19.20522,
18.28888,
17.93354,
19.31307,
19.30673,
19.3012,
17.69057,
18.95657,
19.3191,
19.12785,
16.69266,
19.33274,
19.02336,
1984, 
19.08633,
19.31874,
17.36802,
15.96691,
19.30945,
19.31676,
17.43069,
19.32024,
19.31476,
21.89481,
19.29188,
19.02026,
19.31564,
18.57406,
19.18942,
18.23064,
17.93223,
19.30932,
19.30523,
19.30073,
17.74164,
18.97276,
19.31638,
19.12516,
16.69068,
19.33008,
19.01402,
1985, 
19.06719,
19.31492,
17.34455,
15.91713,
19.30746,
19.31321,
17.37221,
19.31797,
19.31335,
21.91983,
19.28802,
19.02267,
19.31247,
18.53905,
19.17463,
18.19808,
17.93306,
19.30686,
19.30394,
19.30038,
17.76858,
19.00868,
19.3132,
19.11641,
16.69837,
19.32492,
19.00772,
1986, 
19.04263,
19.3114,
17.33381,
15.85859,
19.30549,
19.31012,
17.32134,
19.3138,
19.3115,
21.89071,
19.28592,
19.02252,
19.30959,
18.51489,
19.16856,
18.16194,
17.93597,
19.30452,
19.30285,
19.30021,
17.75166,
19.03645,
19.31005,
19.10384,
16.71984,
19.31939,
19.00228,
1987, 
19.02331,
19.30847,
17.3582,
15.79452,
19.3039,
19.30692,
17.2319,
19.31071,
19.3083,
21.8691,
19.28498,
19.02554,
19.30698,
18.49178,
19.16189,
18.12397,
17.93976,
19.30291,
19.30195,
19.30034,
17.77559,
19.07044,
19.30751,
19.09287,
16.72871,
19.31487,
19.00289,
1988, 
19.01465,
19.30623,
17.35851,
15.72897,
19.30282,
19.30465,
17.26034,
19.30873,
19.30548,
21.86104,
19.2844,
19.02789,
19.30499,
18.472,
19.15608,
18.08615,
17.9415,
19.30188,
19.30134,
19.51634,
17.83191,
19.1025,
19.30555,
19.08477,
16.71373,
19.31038,
19.00233,
1989, 
18.99113,
19.30468,
17.3634,
15.66542,
19.30213,
19.30306,
17.26394,
19.30651,
19.30416,
21.86915,
19.28419,
19.03007,
19.30386,
18.45291,
19.13457,
18.03432,
17.91883,
19.30099,
19.30093,
19.69123,
17.9201,
19.12563,
19.30415,
19.07914,
16.6808,
19.30726,
18.99956,
1990, 
18.97682,
19.3039,
17.35685,
15.60295,
19.30173,
19.30249,
17.29451,
19.30542,
19.30328,
21.86463,
19.28576,
19.03148,
19.30327,
18.43322,
19.12205,
17.99417,
17.91842,
19.30063,
19.30073,
19.82397,
18.01514,
19.15988,
19.30344,
19.07428,
16.71146,
19.30597,
18.99599,
1991, 
18.95907,
19.30331,
17.34434,
15.54522,
19.30153,
19.30182,
17.32206,
19.3047,
19.30284,
21.84134,
19.28728,
19.02278,
19.30265,
18.42552,
19.10056,
17.95043,
17.91069,
19.30038,
19.30058,
19.95352,
18.10101,
19.1893,
19.3029,
19.06647,
16.71408,
19.30494,
18.9931,
1992, 
18.94223,
19.30312,
17.33249,
15.48576,
19.30142,
19.30141,
17.34822,
19.30446,
19.30266,
21.81346,
19.28895,
19.0084,
19.30247,
18.4251,
19.12947,
17.90291,
17.90447,
19.30032,
19.30049,
20.06248,
18.16788,
19.2138,
19.30268,
19.06045,
16.72322,
19.30454,
18.9921,
1993, 
18.92851,
19.29605,
17.32083,
15.45839,
19.30151,
19.28156,
17.37021,
19.30488,
19.3028,
21.77473,
19.2989,
18.99809,
19.30151,
18.43084,
19.14365,
17.83583,
17.89327,
19.30025,
19.30048,
20.03259,
18.2405,
19.22698,
19.29722,
19.05774,
16.79326,
19.30521,
18.99212,
1994, 
18.90871,
19.28271,
17.3258,
15.43301,
19.30171,
19.24783,
17.26647,
19.30595,
19.30308,
21.75366,
19.30208,
18.98765,
19.30002,
18.43732,
19.15505,
17.76662,
17.8933,
19.30021,
19.3005,
19.99573,
18.31426,
19.22777,
19.29164,
19.05196,
16.79389,
19.30703,
18.99064,
1995, 
18.89047,
19.27069,
17.32185,
15.41138,
19.30204,
19.21938,
17.14865,
19.3077,
19.30396,
21.74231,
19.30568,
18.98211,
19.29988,
18.44703,
19.16708,
17.69414,
17.89279,
19.30016,
19.30056,
19.95602,
18.38897,
19.22477,
19.28555,
19.04781,
16.82107,
19.30891,
18.99159,
1996, 
18.87307,
19.25771,
17.36468,
15.39634,
19.30243,
19.18994,
16.99333,
19.30948,
19.30449,
21.73269,
19.30859,
18.97944,
19.29897,
18.45081,
19.18113,
17.60892,
17.89612,
19.30008,
19.30064,
19.9269,
18.45543,
19.21761,
19.27866,
19.04378,
16.88216,
19.31104,
18.99497,
1997, 
18.85665,
19.24424,
17.36805,
15.38675,
19.30296,
19.16358,
16.82854,
19.31152,
19.305,
21.73932,
19.31132,
18.97849,
19.298,
18.45827,
19.19885,
17.51549,
17.89805,
19.29999,
19.30074,
19.90631,
18.512,
19.20602,
19.27126,
19.0414,
16.9359,
19.31301,
18.99203,
1998, 
18.86081,
19.23026,
17.36988,
15.38114,
19.30345,
19.14093,
16.67818,
19.31361,
19.30545,
21.7415,
19.31302,
18.97827,
19.29686,
18.47231,
19.21518,
17.41204,
17.9037,
19.29996,
19.30085,
19.82591,
18.54527,
19.18876,
19.26346,
19.04754,
16.98531,
19.31471,
18.98765,
1999, 
18.86189,
19.21587,
17.37911,
15.37755,
19.30398,
19.11774,
16.54424,
19.31539,
19.30601,
21.73252,
19.3121,
18.97535,
19.29605,
18.48565,
19.22798,
17.31709,
17.90836,
19.29988,
19.30099,
19.76727,
18.51953,
19.15974,
19.25524,
19.05558,
17.0421,
19.31575,
18.98143,
2000, 
18.8588,
19.19956,
17.39175,
15.37259,
19.30443,
19.08855,
16.42381,
19.31718,
19.30621,
21.74029,
19.30759,
18.96386,
19.29561,
18.48865,
19.2366,
17.2107,
17.91648,
19.29977,
19.30105,
19.73632,
18.55008,
19.13017,
19.24685,
19.05834,
17.04591,
19.31656,
18.97264,
2001, 
18.85439,
19.18184,
17.39617,
15.36943,
19.30466,
19.06603,
16.32716,
19.31797,
19.3061,
21.76173,
19.3046,
18.95985,
19.29406,
18.49544,
19.23855,
17.11099,
17.92219,
19.29972,
19.30109,
19.72674,
18.58505,
19.10107,
19.23854,
19.0626,
17.10146,
19.31677,
18.96174,
2002, 
18.85074,
19.1639,
17.41919,
15.36754,
19.30486,
19.05053,
16.25191,
19.31786,
19.30564,
21.77302,
19.30105,
18.95359,
19.29383,
18.49652,
19.22959,
17.02335,
17.93309,
19.29964,
19.30112,
19.72093,
18.59186,
19.05626,
19.22978,
19.06821,
17.11804,
19.31637,
18.95384,
2003, 
18.84867,
19.1445,
17.44223,
15.36588,
19.30489,
19.04513,
16.19236,
19.31788,
19.30554,
21.79353,
19.28888,
18.92073,
19.29147,
18.4923,
19.21581,
17.04476,
17.9454,
19.29958,
19.30112,
19.76031,
18.61379,
18.98309,
19.22544,
19.07513,
17.18765,
19.31454,
18.9507,
2004, 
18.84706,
19.12441,
17.46806,
15.3657,
19.3052,
19.04999,
16.15519,
19.31704,
19.30544,
21.81211,
19.28322,
18.90708,
19.28965,
18.47903,
19.19459,
17.09982,
17.95787,
19.29948,
19.30118,
19.8257,
18.63492,
18.951,
19.22241,
19.08113,
17.24988,
19.31442,
18.95078,
2005, 
18.83606,
19.09973,
17.49232,
15.36371,
19.30453,
19.06084,
16.12975,
19.3132,
19.30427,
21.84709,
19.27936,
18.90664,
19.28669,
18.43699,
19.16181,
17.16847,
17.97053,
19.29935,
19.30108,
19.92134,
18.6673,
18.93248,
19.21863,
19.07909,
17.33838,
19.31103,
18.95602,
2006, 
18.82613,
19.07257,
17.52187,
15.36137,
19.30421,
19.07505,
16.11012,
19.09294,
19.30347,
21.88387,
19.27511,
18.90173,
19.28361,
18.40613,
19.12436,
17.24694,
17.98774,
19.29924,
19.30103,
20.03005,
18.69326,
18.91513,
19.21625,
19.0776,
17.43218,
19.30839,
18.96561,
2007, 
18.81499,
19.04371,
17.55344,
15.35916,
19.30381,
19.0839,
16.13295,
18.87099,
19.30258,
21.92669,
19.27253,
18.90669,
19.28068,
18.35152,
19.08317,
17.34584,
18.00986,
19.29915,
19.30096,
20.18866,
18.72315,
18.91671,
19.21465,
19.0733,
17.51335,
19.30617,
18.9884,
2008, 
18.80401,
19.01616,
17.58905,
15.35719,
19.30333,
19.0723,
16.15655,
18.70135,
19.30186,
21.94778,
19.26958,
18.91167,
19.27867,
18.28682,
19.03142,
17.44502,
18.03655,
19.29907,
19.30089,
20.36858,
18.74868,
18.92917,
19.21351,
19.06605,
17.58176,
19.30426,
19.02328,
2009, 
18.7979,
18.99057,
17.62173,
15.3563,
19.30288,
19.0508,
16.28536,
18.54162,
19.30138,
21.95187,
19.26503,
18.92274,
19.27656,
18.23601,
18.99182,
17.5427,
18.06678,
19.29903,
19.30083,
20.51012,
18.768,
18.95429,
19.21222,
19.0572,
17.61102,
19.30313,
19.0569,
2010, 
18.79308,
18.96213,
17.65706,
15.3673,
19.30253,
19.06036,
16.29907,
18.37154,
19.30105,
21.91518,
19.26179,
18.93173,
19.27419,
18.25395,
18.967,
17.63979,
18.10014,
19.29905,
19.30506,
20.65722,
18.77595,
18.98597,
19.21054,
19.04703,
17.66114,
19.30251,
19.10414,
2011, 
18.78785,
18.92664,
17.69653,
15.37285,
19.3021,
19.06127,
16.32126,
18.18585,
19.30077,
21.90236,
19.25746,
18.94451,
19.2676,
18.20497,
18.92211,
17.72606,
18.13504,
19.29908,
19.31003,
20.82383,
18.80906,
19.01608,
19.21009,
19.03315,
17.69176,
19.30185,
19.15476,
2012, 
18.78316,
18.88628,
17.73725,
15.4478,
19.30175,
19.05458,
16.3158,
18.00846,
19.30059,
21.88682,
19.25248,
18.96,
19.25815,
18.15404,
18.87465,
17.80604,
18.16902,
19.29914,
19.31552,
20.98906,
18.82611,
19.04565,
19.20919,
19.0139,
17.71834,
19.3014,
19.21008,
2013, 
18.78022,
18.84523,
17.78248,
15.49443,
19.30147,
19.06097,
16.33521,
17.90792,
19.3,
21.84071,
19.25534,
18.99168,
19.25396,
18.1267,
18.83709,
17.82121,
18.20888,
19.29922,
19.32184,
21.15666,
18.8497,
19.12149,
19.20915,
18.99224,
17.75643,
19.30103,
19.26696,
2014, 
18.77833,
18.7967,
17.83047,
15.51457,
19.30121,
19.05902,
16.31835,
17.75503,
19.3,
21.79905,
19.25265,
19.01345,
19.24394,
18.0991,
18.78771,
17.81557,
18.24773,
19.29926,
19.32887,
21.31934,
18.87385,
19.1438,
19.20934,
18.97046,
17.79906,
19.30077,
19.32355,
2015, 
18.77795,
18.74007,
17.88218,
15.54921,
19.301,
19.05567,
16.29545,
17.61251,
19.3,
21.75583,
19.24757,
19.02917,
19.23237,
18.08922,
18.75183,
17.79254,
18.28677,
19.29934,
19.33632,
21.47588,
18.89342,
19.14108,
19.20999,
18.94512,
17.84353,
19.30058,
19.37796,
2016, 
18.77821,
18.67903,
17.93634,
15.59559,
19.30085,
19.04356,
16.27431,
17.67615,
19.3,
21.7057,
19.2452,
19.05064,
19.2193,
18.09666,
18.73629,
17.74608,
18.32311,
19.29944,
19.34423,
21.62733,
18.91368,
19.14336,
19.2144,
18.91626,
17.88914,
19.30046,
19.43339,
2017, 
18.77709,
18.61287,
17.99185,
15.6321,
19.30071,
19.04059,
16.22305,
17.70027,
19.3,
21.64995,
19.24573,
19.06771,
19.20482,
18.07479,
18.72253,
17.68763,
18.35618,
19.29953,
19.35295,
21.77182,
18.93174,
19.13371,
19.22344,
18.88396,
17.94096,
19.30036,
19.48415,
2018, 
18.7746,
18.54071,
18.05059,
15.65083,
19.30057,
19.044,
16.17311,
17.7116,
19.3,
21.62819,
19.25066,
19.08371,
19.18797,
18.04332,
18.67622,
17.62193,
18.38536,
19.29957,
19.36237,
21.92337,
18.95277,
19.12003,
19.23787,
18.84653,
17.99281,
19.30026,
19.53897,
2019, 
18.77186,
18.46985,
18.1116,
15.66654,
19.30045,
19.06728,
16.02796,
17.78092,
19.3,
21.5875,
19.2619,
19.09585,
19.17456,
18.00853,
18.63184,
17.55211,
18.41641,
19.2996,
19.3716,
22.07615,
18.96864,
19.12356,
19.25854,
18.80447,
18.04461,
19.30019,
19.59582,
2020, 
18.77001,
18.40081,
18.17348,
15.6699,
19.30035,
19.05192,
15.97403,
17.83954,
19.3,
21.5416,
19.27439,
19.09425,
19.16083,
17.96769,
18.58411,
17.48403,
18.44623,
19.29956,
19.37801,
22.22099,
18.97965,
19.12516,
19.28226,
18.75564,
18.09038,
19.30014,
19.65058,
2021, 
18.77039,
18.34345,
18.208,
15.67552,
19.30029,
19.03326,
15.90968,
17.82282,
19.3,
21.43476,
19.28356,
19.08468,
19.1505,
17.96298,
18.58579,
17.45171,
18.47268,
19.29952,
19.3838,
22.32477,
18.97474,
19.1188,
19.30569,
18.7075,
18.05783,
19.30012,
19.70738,
2022, 
18.76948,
18.27705,
18.27036,
15.63076,
19.30021,
19.02119,
15.84007,
17.86628,
19.3,
21.36276,
19.30291,
19.0782,
19.14043,
17.92919,
18.55053,
17.38902,
18.5037,
19.29947,
19.38935,
22.45518,
18.98188,
19.13209,
19.33459,
18.64931,
18.07853,
19.30009,
19.75996,
2023, 
18.7699,
18.22014,
18.33014,
15.59746,
19.30016,
18.99613,
15.78417,
17.86854,
19.30384,
21.29496,
19.32015,
19.0668,
19.15361,
17.88811,
18.51623,
17.34162,
18.52973,
19.2994,
19.3969,
22.56061,
18.98859,
19.13691,
19.3649,
18.58536,
18.09435,
19.29818,
19.80652,
2024, 
18.77015,
18.17018,
18.39166,
15.58401,
19.30012,
18.97947,
15.73308,
17.91677,
19.31051,
21.21005,
19.33985,
19.05398,
19.17411,
17.84624,
18.48556,
17.29882,
18.55787,
19.29934,
19.4066,
22.65926,
18.99521,
19.14919,
19.39657,
18.51558,
18.106,
19.29615,
19.85234,
2025, 
18.77051,
18.12582,
18.45392,
15.57033,
19.30009,
18.9542,
15.68691,
17.96944,
19.3209,
21.11421,
19.36052,
19.03876,
19.19907,
17.8012,
18.44183,
17.26743,
18.58578,
19.29923,
19.41859,
22.74645,
19.00301,
19.17303,
19.42927,
18.43977,
18.11698,
19.29375,
19.89368,
2026, 
18.7716,
18.08592,
18.51618,
15.55168,
19.30006,
18.92507,
15.64462,
18.02892,
19.33527,
21.01834,
19.38153,
19.02269,
19.22965,
17.75168,
18.38996,
17.26058,
18.6119,
19.2991,
19.4326,
22.81863,
19.0152,
19.19612,
19.46318,
18.357,
18.12976,
19.29106,
19.92453,
2027, 
18.77319,
18.05216,
18.5777,
15.55648,
19.30005,
18.89556,
15.60601,
18.11068,
19.35484,
20.9248,
19.40255,
19.00694,
19.26699,
17.70151,
18.33131,
17.24658,
18.63638,
19.29893,
19.44671,
22.88339,
19.03564,
19.22007,
19.49782,
18.27262,
18.154,
19.28823,
19.95114,
2028, 
18.77482,
18.02432,
18.63676,
15.60519,
19.30003,
18.87274,
15.56993,
18.19621,
19.37988,
20.82969,
19.42455,
18.99348,
19.31328,
17.65001,
18.28141,
17.22753,
18.6602,
19.29876,
19.45989,
22.93723,
19.07359,
19.2446,
19.53277,
18.18111,
18.18038,
19.28532,
19.97391,
2029, 
18.7764,
17.99952,
18.69234,
15.69928,
19.30002,
18.83643,
15.53612,
18.23882,
19.41047,
20.74881,
19.44691,
18.98071,
19.36839,
17.59747,
18.22754,
17.21266,
18.67737,
19.29854,
19.47208,
22.98216,
19.13585,
19.25491,
19.56856,
18.08199,
18.2063,
19.28238,
19.99247,
2030, 
18.77753,
17.98193,
18.74371,
15.85413,
19.29998,
18.81577,
15.5049,
18.30357,
19.44616,
20.66928,
19.4702,
18.97909,
19.44286,
17.54533,
18.17369,
17.20277,
18.69233,
19.29824,
19.48527,
23.02162,
19.22518,
19.26503,
19.6044,
17.97842,
18.23462,
19.27942,
20.01097,
2031, 
18.78065,
17.97124,
18.79046,
16.06775,
19.29999,
18.7971,
15.47662,
18.35915,
19.487,
20.59157,
19.49302,
18.98019,
19.54132,
17.4958,
18.12119,
17.19714,
18.70754,
19.29786,
19.4985,
23.05517,
19.33678,
19.27299,
19.63734,
17.86888,
18.26229,
19.2765,
20.02888,
2032, 
18.78625,
17.96875,
18.83175,
16.32789,
19.29999,
18.78235,
15.45165,
18.405,
19.53229,
20.51555,
19.51315,
18.98493,
19.66078,
17.45105,
18.07387,
17.19674,
18.72296,
19.29737,
19.51162,
23.07851,
19.46634,
19.27843,
19.66566,
17.75324,
18.28803,
19.27365,
20.04336,
2033, 
18.79445,
17.9682,
18.86741,
16.62239,
19.29999,
18.7729,
15.42984,
18.44275,
19.57732,
20.44146,
19.52919,
18.99298,
19.77459,
17.40995,
18.02825,
17.20155,
18.73818,
19.29673,
19.52229,
23.09436,
19.60537,
19.28205,
19.68848,
17.63668,
18.31226,
19.27305,
20.05528,
2034, 
18.80416,
17.97521,
18.89715,
16.93716,
19.29999,
18.76948,
15.41135,
18.47226,
19.62312,
20.36911,
19.54089,
19.00341,
19.90058,
17.37229,
17.98455,
17.213,
18.75177,
19.29593,
19.53272,
23.10083,
19.75442,
19.28455,
19.7051,
17.51738,
18.33539,
19.27281,
20.06491,
2035, 
18.814,
17.98719,
18.92288,
17.26039,
19.29999,
18.77197,
15.39621,
18.49356,
19.66684,
20.29963,
19.55013,
19.01657,
20.03613,
17.33727,
17.94368,
17.22975,
18.76392,
19.29491,
19.54374,
23.09617,
19.90991,
19.28645,
19.7189,
17.39614,
18.35723,
19.27338,
20.07166,
2036, 
18.82412,
18.00526,
18.945,
17.59006,
19.29999,
18.77979,
15.38428,
18.50656,
19.70751,
20.23284,
19.55665,
19.0314,
20.17686,
17.30473,
17.90505,
17.25116,
18.7748,
19.29364,
19.55643,
23.07897,
20.06738,
19.28801,
19.7297,
17.27408,
18.37782,
19.27493,
20.07515,
2037, 
18.83411,
18.02946,
18.96354,
17.90721,
19.29999,
18.79211,
15.37523,
18.51173,
19.74388,
20.16949,
19.56104,
19.04723,
20.31873,
17.2759,
17.87151,
17.27728,
18.78438,
19.29204,
19.5714,
23.04683,
20.22054,
19.2893,
19.73746,
17.15253,
18.39766,
19.27763,
20.07388,
2038, 
18.84385,
18.05925,
18.97875,
18.19968,
19.29999,
18.80828,
15.36841,
18.50944,
19.77656,
20.10986,
19.56282,
19.06433,
20.45651,
17.24871,
17.84026,
17.30628,
18.79453,
19.29005,
19.58856,
23.0005,
20.36132,
19.29041,
19.74294,
17.03303,
18.41725,
19.28167,
20.06833,
2039, 
18.85295,
18.09441,
18.9919,
18.44186,
19.29999,
18.82773,
15.36337,
18.50036,
19.80582,
20.05464,
19.56209,
19.0822,
20.58578,
17.22303,
17.81145,
17.33741,
18.8037,
19.28757,
19.60537,
22.93936,
20.48279,
19.29132,
19.7472,
16.91592,
18.43616,
19.28716,
20.05758,
2040, 
18.86098,
18.13453,
19.0034,
18.63147,
19.29999,
18.84993,
15.3597,
18.48512,
19.83307,
20.00414,
19.55915,
19.10411,
20.69932,
17.19863,
17.78519,
17.37,
18.813,
19.28445,
19.61924,
22.86311,
20.58313,
19.29207,
19.74998,
16.8026,
18.45502,
19.29607,
20.04152,
2041, 
18.86877,
18.17874,
19.01354,
18.77142,
19.29999,
18.8734,
15.35702,
18.46421,
19.85765,
19.95767,
19.55387,
19.13177,
20.79368,
17.1753,
17.76138,
17.4037,
18.8255,
19.28053,
19.63025,
22.77179,
20.66504,
19.29266,
19.74899,
16.69399,
18.47424,
19.30869,
20.02042,
2042, 
18.87687,
18.2267,
19.02254,
18.8717,
19.29999,
18.89698,
15.35498,
18.43806,
19.87951,
19.91409,
19.54631,
19.16669,
20.87116,
17.15431,
17.74193,
17.4388,
18.84155,
19.27562,
19.63835,
22.66514,
20.73064,
19.29312,
19.74381,
16.59109,
18.49405,
19.32548,
19.99449,
2043, 
18.88517,
18.27852,
19.03062,
18.9409,
19.3,
18.92032,
15.35333,
18.40734,
19.89936,
19.87269,
19.53971,
19.20975,
20.93559,
17.13432,
17.72476,
17.47447,
18.86082,
19.26947,
19.64432,
22.54412,
20.78264,
19.29347,
19.73454,
16.49467,
18.51504,
19.34694,
19.96481,
2044, 
18.89185,
18.33238,
19.03812,
18.98608,
19.3,
18.94304,
15.35184,
18.37296,
19.91846,
19.83401,
19.53809,
19.2623,
20.98924,
17.11519,
17.70999,
17.51069,
18.8818,
19.2618,
19.6487,
22.40913,
20.82356,
19.29375,
19.72172,
16.4055,
18.53763,
19.37387,
19.93199,
2045, 
18.89608,
18.38513,
19.04514,
19.01268,
19.3,
18.96504,
15.35059,
18.3364,
19.9402,
19.79904,
19.54418,
19.31716,
21.03318,
17.09706,
17.69737,
17.54615,
18.90438,
19.25225,
19.65131,
22.26081,
20.85518,
19.29397,
19.70995,
16.32356,
18.56111,
19.40276,
19.89635,
2046, 
18.89771,
18.43684,
19.05185,
19.02599,
19.3,
18.98632,
15.34949,
18.29796,
19.96708,
19.76653,
19.55621,
19.37421,
21.06948,
17.07988,
17.68609,
17.58062,
18.92828,
19.24041,
19.65105,
22.10014,
20.87983,
19.29415,
19.69788,
16.24969,
18.58578,
19.43586,
19.85827,
2047, 
18.8965,
18.48628,
19.05828,
19.02999,
19.3,
19.00693,
15.34867,
18.25737,
20.00019,
19.73608,
19.57197,
19.43247,
21.10008,
17.06437,
17.67738,
17.61416,
18.95301,
19.22583,
19.64758,
21.92871,
20.89929,
19.29428,
19.68619,
16.18438,
18.6115,
19.47376,
19.81796,
2048, 
18.89252,
18.53334,
19.06461,
19.02489,
19.3,
19.02706,
15.34839,
18.21512,
20.03868,
19.70675,
19.5899,
19.49008,
21.1266,
17.04969,
17.66955,
17.64616,
18.97828,
19.20794,
19.64092,
21.7487,
20.91474,
19.29441,
19.67536,
16.12742,
18.63843,
19.51643,
19.77592,
2049, 
18.8859,
18.57571,
19.07094,
19.01411,
19.30001,
19.04676,
15.34878,
18.17157,
20.0813,
19.67829,
19.6085,
19.54502,
21.15001,
17.03572,
17.66244,
17.67649,
19.00386,
19.18607,
19.62897,
21.5623,
20.9272,
19.29455,
19.66523,
16.07751,
18.66659,
19.5631,
19.73223,
2050, 
18.87711,
18.61275,
19.07731,
18.99877,
19.30001,
19.06608,
15.34952,
18.1269,
20.12491,
19.6508,
19.62575,
19.59222,
21.17094,
17.02238,
17.65476,
17.70515,
19.02971,
19.15945,
19.60859,
21.37138,
20.9377,
19.29468,
19.65532,
16.0336,
18.69543,
19.60839,
19.68676,
2051, 
18.86691,
18.6436,
19.08377,
18.9796,
19.30002,
19.08508,
15.35007,
18.08138,
20.16895,
19.6242,
19.63924,
19.62856,
21.18997,
17.00963,
17.6462,
17.73188,
19.05568,
19.13282,
19.57817,
21.17743,
20.9469,
19.29486,
19.64389,
15.99511,
18.72485,
19.64991,
19.64011,
2052, 
18.85638,
18.66873,
19.0903,
18.95737,
19.30003,
19.10373,
15.35025,
18.035,
20.21288,
19.59823,
19.64473,
19.65104,
21.20726,
16.99765,
17.63696,
17.75665,
19.08169,
19.11435,
19.53746,
20.98215,
20.95547,
19.29505,
19.62904,
15.96157,
18.7542,
19.68663,
19.59333,
2053, 
18.84665,
18.68964,
19.09695,
18.93332,
19.30004,
19.12234,
15.3499,
17.98819,
20.25759,
19.57259,
19.63679,
19.65731,
21.22303,
16.98617,
17.62621,
17.77952,
19.106,
19.10487,
19.4875,
20.78553,
20.96368,
19.29529,
19.60931,
15.93199,
18.78284,
19.71749,
19.54629,
2054, 
18.83373,
18.70316,
19.10363,
18.90798,
19.30005,
19.14105,
15.34901,
17.94112,
20.2992,
19.54726,
19.6096,
19.64459,
21.23789,
16.9751,
17.61385,
17.80033,
19.13014,
19.09883,
19.42805,
20.58807,
20.97127,
19.29555,
19.58052,
15.90627,
18.81159,
19.73917,
19.49743,
2055, 
18.81778,
18.70929,
19.11037,
18.88232,
19.30006,
19.1608,
15.34766,
17.89371,
20.33631,
19.52216,
19.56273,
19.61876,
21.25203,
16.96423,
17.59972,
17.81914,
19.1532,
19.09762,
19.36054,
20.38984,
20.9782,
19.29584,
19.54155,
15.88342,
18.8391,
19.75593,
19.44704,
2056, 
18.79671,
18.70778,
19.11718,
18.85703,
19.30007,
19.18352,
15.34581,
17.84637,
20.36653,
19.49825,
19.49929,
19.57912,
21.26469,
16.95349,
17.58378,
17.836,
19.17237,
19.10167,
19.28481,
20.19099,
20.98349,
19.29613,
19.49632,
15.86298,
18.86472,
19.76723,
19.39525,
2057, 
18.76908,
18.6973,
19.12395,
18.83273,
19.30009,
19.212,
15.34343,
17.79951,
20.38988,
19.47722,
19.42469,
19.52646,
21.27587,
16.9419,
17.56589,
17.85075,
19.18735,
19.11064,
19.20133,
19.99236,
20.98699,
19.29644,
19.44506,
15.84424,
18.88796,
19.77298,
19.34265,
2058, 
18.73411,
18.67686,
19.13069,
18.80973,
19.30009,
19.24833,
15.34044,
17.75301,
20.40628,
19.45987,
19.34257,
19.46255,
21.28551,
16.93031,
17.54615,
17.8635,
19.19864,
19.12436,
19.11082,
19.79442,
20.98738,
19.29674,
19.38845,
15.82685,
18.9085,
19.77404,
19.28964,
2059, 
18.69231,
18.64736,
19.13731,
18.78836,
19.30011,
19.2921,
15.33674,
17.707,
20.41703,
19.44575,
19.25581,
19.38891,
21.29346,
16.91866,
17.52457,
17.87409,
19.20781,
19.14303,
19.0135,
19.59843,
20.98588,
19.29702,
19.32744,
15.81035,
18.92583,
19.77108,
19.23712,
2060, 
18.64389,
18.61104,
19.14373,
18.76908,
19.30011,
19.3411,
15.33264,
17.66164,
20.42419,
19.43319,
19.16386,
19.30692,
21.30077,
16.90695,
17.50148,
17.88367,
19.21505,
19.16711,
18.90952,
19.40558,
20.98297,
19.29728,
19.25885,
15.79458,
18.94121,
19.76786,
19.1857,
2061, 
18.58839,
18.56808,
19.14993,
18.75225,
19.30012,
19.39188,
15.32859,
17.61701,
20.42834,
19.42235,
19.06938,
19.21799,
21.30748,
16.89509,
17.47765,
17.89232,
19.22062,
19.19252,
18.79924,
19.21706,
20.97884,
19.29749,
19.18353,
15.77921,
18.9548,
19.76419,
19.13526,
2062, 
18.52538,
18.5182,
19.15584,
18.73842,
19.30013,
19.44288,
15.3249,
17.57392,
20.42969,
19.41309,
18.97407,
19.12309,
21.31355,
16.88295,
17.45286,
17.90006,
19.22496,
19.21215,
18.68348,
19.03438,
20.97396,
19.29763,
19.10186,
15.76374,
18.96669,
19.75995,
19.08516,
2063, 
18.45463,
18.46037,
19.16148,
18.72789,
19.30013,
19.49356,
15.32164,
17.53172,
20.42722,
19.40493,
18.87897,
19.02367,
21.31874,
16.87048,
17.42749,
17.90712,
19.2285,
19.22548,
18.56346,
18.85833,
20.96836,
19.29771,
19.0141,
15.74794,
18.97726,
19.7548,
19.03538,
2064, 
18.38079,
18.39793,
19.1668,
18.72091,
19.30013,
19.54419,
15.31887,
17.49051,
20.42352,
19.39759,
18.78528,
18.92165,
21.32286,
16.85784,
17.40203,
17.91362,
19.23149,
19.23745,
18.44342,
18.69002,
20.96245,
19.29771,
18.92214,
15.73155,
18.98705,
19.75018,
18.98757,
2065, 
18.30406,
18.33117,
19.1717,
18.71756,
19.30013,
19.59491,
15.31651,
17.45036,
20.41797,
19.39083,
18.6938,
18.81853,
21.32551,
16.84506,
17.37661,
17.9196,
19.23408,
19.24707,
18.32557,
18.53047,
20.95609,
19.29762,
18.82644,
15.71449,
18.99612,
19.74168,
18.94175,
2066, 
18.22555,
18.2606,
19.17607,
18.71783,
19.30012,
19.64495,
15.31456,
17.41128,
20.41039,
19.38455,
18.60531,
18.71555,
21.32627,
16.83216,
17.35137,
17.92504,
19.23636,
19.25427,
18.21171,
18.38063,
20.94909,
19.29743,
18.72731,
15.69661,
19.00461,
19.72873,
18.89806,
2067, 
18.14638,
18.18872,
19.17983,
18.72194,
19.30011,
19.69142,
15.31291,
17.37406,
20.40262,
19.37874,
18.52096,
18.61451,
21.32469,
16.8197,
17.32657,
17.9298,
19.23837,
19.25816,
18.10243,
18.24153,
20.94172,
19.2971,
18.62693,
15.67801,
19.01258,
19.71154,
18.85681,
2068, 
18.06789,
18.11696,
19.18294,
18.72963,
19.30009,
19.73116,
15.31152,
17.3379,
20.39539,
19.37333,
18.44103,
18.51634,
21.32068,
16.80736,
17.3022,
17.93369,
19.2402,
19.25171,
17.9959,
18.11415,
20.93361,
19.29662,
18.52652,
15.65864,
19.02015,
19.6902,
18.81702,
2069, 
17.99072,
18.04633,
19.18544,
18.74081,
19.30005,
19.76325,
15.31034,
17.30287,
20.38885,
19.36826,
18.36603,
18.42222,
21.31423,
16.79538,
17.27833,
17.93656,
19.24196,
19.23404,
17.89183,
17.99908,
20.92472,
19.29597,
18.42764,
15.63867,
19.02739,
19.66509,
18.77862,
2070, 
17.91622,
17.97791,
19.18738,
18.75542,
19.29998,
19.78628,
15.30932,
17.26896,
20.38323,
19.36351,
18.29618,
18.33341,
21.30531,
16.78385,
17.25504,
17.9387,
19.2437,
19.20556,
17.79007,
17.89661,
20.91537,
19.29513,
18.33214,
15.61842,
19.0344,
19.6371,
18.74174,
2071, 
17.84517,
17.91271,
19.18883,
18.77342,
19.29988,
19.80179,
15.30843,
17.23613,
20.37954,
19.35904,
18.2318,
18.25075,
21.29406,
16.77183,
17.23233,
17.9397,
19.24545,
19.16668,
17.69179,
17.80663,
20.90567,
19.29405,
18.24228,
15.59841,
19.04132,
19.60831,
18.70658,
2072, 
17.77826,
17.85129,
19.18983,
18.79498,
19.29978,
19.80931,
15.30766,
17.20515,
20.37834,
19.35485,
18.17329,
18.17539,
21.28101,
16.76073,
17.21054,
17.93956,
19.24712,
19.12325,
17.59735,
17.72865,
20.89588,
19.29281,
18.15901,
15.57928,
19.0481,
19.57947,
18.67402,
2073, 
17.71608,
17.79404,
19.19043,
18.82006,
19.29964,
19.80791,
15.30699,
17.17523,
20.3797,
19.35086,
18.12024,
18.10728,
21.26672,
16.75018,
17.1894,
17.93804,
19.24872,
19.07866,
17.50727,
17.66102,
20.88601,
19.29144,
18.08335,
15.56134,
19.05501,
19.55117,
18.64426,
2074, 
17.65919,
17.74137,
19.19073,
18.84899,
19.29945,
19.79709,
15.30643,
17.1464,
20.38392,
19.34708,
18.07244,
18.04463,
21.25175,
16.74023,
17.16891,
17.93503,
19.25019,
19.03668,
17.42221,
17.60189,
20.8763,
19.29055,
18.01632,
15.54504,
19.06214,
19.52412,
18.61762,
2075, 
17.60826,
17.69354,
19.19083,
18.88207,
19.29916,
19.77673,
15.30595,
17.11867,
20.3915,
19.34348,
18.0296,
17.98976,
21.23678,
16.73095,
17.14907,
17.93035,
19.25147,
19.00363,
17.34273,
17.54959,
20.86697,
19.28998,
17.9582,
15.53048,
19.06953,
19.50152,
18.59493,
2076, 
17.56348,
17.65075,
19.19085,
18.91881,
19.29865,
19.74655,
15.30556,
17.09199,
20.40249,
19.34003,
17.99125,
17.94228,
21.22225,
16.72241,
17.12988,
17.92388,
19.25253,
18.984,
17.26939,
17.50271,
20.85836,
19.28968,
17.90972,
15.51779,
19.07719,
19.48413,
18.5767,
2077, 
17.52523,
17.61229,
19.1909,
18.95996,
19.29757,
19.70785,
15.30526,
17.06699,
20.4156,
19.33673,
17.95678,
17.90176,
21.20875,
16.7148,
17.11149,
17.91564,
19.25328,
18.97676,
17.20195,
17.46032,
20.85045,
19.28968,
17.86958,
15.50742,
19.08498,
19.47262,
18.56238,
2078, 
17.49352,
17.57552,
19.19107,
19.00495,
19.29513,
19.66336,
15.30503,
17.04297,
20.43009,
19.33356,
17.92539,
17.8674,
21.19596,
16.70789,
17.09375,
17.90544,
19.25368,
18.98486,
17.1405,
17.42176,
20.8434,
19.29001,
17.83737,
15.49943,
19.09296,
19.46703,
18.55211,
2079, 
17.46876,
17.54323,
19.19151,
19.05335,
19.29025,
19.61643,
15.30486,
17.01994,
20.44496,
19.33056,
17.89647,
17.83844,
21.18352,
16.70165,
17.0767,
17.89323,
19.25354,
19.0092,
17.08462,
17.38667,
20.8373,
19.29063,
17.81199,
15.49383,
19.10091,
19.46745,
18.54604,
2080, 
17.45034,
17.51492,
19.19227,
19.1048,
19.28232,
19.5734,
15.30473,
16.99788,
20.45959,
19.32774,
17.86924,
17.81383,
21.17094,
16.696,
17.06042,
17.8785,
19.25275,
19.04892,
17.0335,
17.35433,
20.83195,
19.29152,
17.79208,
15.49119,
19.10871,
19.47194,
18.54379,
2081, 
17.43845,
17.49021,
19.19342,
19.15886,
19.27062,
19.53958,
15.30462,
16.97674,
20.47311,
19.32511,
17.84314,
17.7924,
21.15748,
16.69182,
17.04483,
17.86164,
19.25121,
19.1028,
16.98643,
17.32427,
20.82732,
19.29272,
17.7757,
15.49226,
19.1164,
19.47999,
18.54501,
2082, 
17.43317,
17.46937,
19.19507,
19.21519,
19.25422,
19.52026,
15.30453,
16.95703,
20.48594,
19.32273,
17.81799,
17.77354,
21.14248,
16.68851,
17.02998,
17.84258,
19.24883,
19.16488,
16.94288,
17.2961,
20.82347,
19.29414,
17.7621,
15.49782,
19.12384,
19.49185,
18.54871,
2083, 
17.43421,
17.45225,
19.1974,
19.273,
19.23215,
19.51686,
15.30445,
16.93814,
20.49755,
19.32069,
17.79324,
17.7561,
21.12506,
16.68595,
17.0158,
17.82134,
19.2453,
19.23205,
16.90219,
17.26976,
20.82009,
19.29574,
17.75035,
15.50967,
19.13081,
19.50781,
18.55422,
2084, 
17.44114,
17.43859,
19.2006,
19.33167,
19.20319,
19.52736,
15.30436,
16.9201,
20.50879,
19.31929,
17.76887,
17.74156,
21.10451,
16.68411,
17.00226,
17.79796,
19.24006,
19.30434,
16.86475,
17.24486,
20.81755,
19.29696,
17.74028,
15.52619,
19.14403,
19.52902,
18.56175,
2085, 
17.45333,
17.4279,
19.20498,
19.39032,
19.16613,
19.54804,
15.30426,
16.90162,
20.52122,
19.31908,
17.74492,
17.72723,
21.0802,
16.68304,
16.98932,
17.77259,
19.232,
19.31508,
16.83077,
17.22138,
20.81577,
19.29791,
17.73133,
15.54665,
19.16876,
19.55427,
18.56022,
2086, 
17.46987,
17.41925,
19.21108,
19.44856,
19.12253,
19.57513,
15.30416,
16.88375,
20.53193,
19.32616,
17.72144,
17.71313,
21.05167,
16.68357,
16.97685,
17.74482,
19.21933,
19.2925,
16.80356,
17.1993,
20.81507,
19.29796,
17.72371,
15.56283,
19.23949,
19.59813,
18.55583,
2087, 
17.48989,
17.41248,
19.21932,
19.50476,
19.06926,
19.60382,
15.30404,
16.8673,
20.5386,
19.35781,
17.69836,
17.6991,
21.01856,
16.68621,
16.96473,
17.71448,
19.19977,
19.25182,
16.78611,
17.1785,
20.81539,
19.29651,
17.71623,
15.57521,
19.32482,
19.66182,
18.54934,
2088, 
17.51248,
17.40975,
19.23016,
19.55746,
19.00311,
19.6294,
15.30391,
16.85199,
20.54012,
19.41906,
17.67548,
17.68428,
20.98042,
16.68637,
16.95271,
17.68043,
19.17287,
19.19328,
16.77901,
17.15881,
20.81561,
19.29624,
17.7061,
15.58339,
19.39794,
19.74101,
18.5393,
2089, 
17.5369,
17.40717,
19.24394,
19.60528,
18.92256,
19.64693,
15.30377,
16.83829,
20.53622,
19.49343,
17.65267,
17.6684,
20.93685,
16.68653,
16.94063,
17.64341,
19.1362,
19.11767,
16.77701,
17.1405,
20.81371,
19.2963,
17.69318,
15.58892,
19.45576,
19.83325,
18.52481,
2090, 
17.56235,
17.40379,
19.26094,
19.64714,
18.82623,
19.65017,
15.30362,
16.82667,
20.52604,
19.56098,
17.6297,
17.65173,
20.88766,
16.68637,
16.9283,
17.60535,
19.08932,
19.02977,
16.76799,
17.12414,
20.80866,
19.29316,
17.68268,
15.59628,
19.49927,
19.9372,
18.50611,
2091, 
17.58718,
17.39804,
19.28091,
19.6819,
18.71406,
19.63684,
15.30345,
16.81656,
20.50923,
19.64292,
17.60675,
17.63393,
20.83268,
16.68577,
16.91582,
17.56282,
19.03222,
18.93417,
16.7644,
17.1103,
20.80085,
19.28979,
17.67022,
15.60026,
19.53164,
20.05336,
18.48417,
2092, 
17.61044,
17.39005,
19.304,
19.70882,
18.58751,
19.59625,
15.30328,
16.80833,
20.48588,
19.73429,
17.58379,
17.61498,
20.77208,
16.68503,
16.90317,
17.5161,
18.96594,
18.83418,
16.76581,
17.10115,
20.78958,
19.28663,
17.65486,
15.59979,
19.55452,
20.17707,
18.45944,
2093, 
17.63126,
17.37901,
19.3309,
19.72692,
18.44946,
19.52389,
15.30311,
16.80124,
20.45569,
19.82903,
17.56078,
17.59488,
20.70565,
16.68446,
16.89054,
17.46182,
18.89263,
18.73275,
16.77076,
17.09669,
20.77427,
19.28428,
17.63748,
15.59435,
19.58056,
20.30419,
18.43282,
2094, 
17.64888,
17.36534,
19.36241,
19.73559,
18.30285,
19.44862,
15.30294,
16.79543,
20.41803,
19.9241,
17.53763,
17.57369,
20.63366,
16.68483,
16.87785,
17.39593,
18.81366,
18.62868,
16.77829,
17.09931,
20.75456,
19.28408,
17.61735,
15.5852,
19.60988,
20.43138,
18.40506,
2095, 
17.66312,
17.34834,
19.39964,
19.73458,
18.15026,
19.36349,
15.30277,
16.79136,
20.37194,
20.01698,
17.51435,
17.55138,
20.55649,
16.68828,
16.86598,
17.31836,
18.76647,
18.5751,
16.78817,
17.09846,
20.73081,
19.28914,
17.59435,
15.57273,
19.63743,
20.55695,
18.38584,
2096, 
17.67346,
17.32738,
19.42034,
19.72156,
17.99244,
19.26557,
15.3026,
16.79417,
20.31862,
20.10141,
17.49079,
17.52799,
20.47462,
16.70177,
16.85669,
17.23236,
18.73263,
18.54455,
16.79883,
17.12972,
20.7032,
19.31903,
17.55685,
15.56243,
19.63953,
20.6677,
18.37229,
2097, 
17.67994,
17.30316,
19.4095,
19.6867,
17.83334,
19.15861,
15.30245,
16.80869,
20.26018,
20.1602,
17.46711,
17.50395,
20.38873,
16.72932,
16.85299,
17.13917,
18.7131,
18.52586,
16.80462,
17.17379,
20.67254,
19.37166,
17.50439,
15.56619,
19.63289,
20.7593,
18.36147,
2098, 
17.68301,
17.27383,
19.37868,
19.61852,
17.67743,
19.04648,
15.3023,
16.84255,
20.19714,
20.18763,
17.44346,
17.47968,
20.29924,
16.75365,
16.85362,
17.04112,
18.70876,
18.51955,
16.80421,
17.22764,
20.63946,
19.43634,
17.43665,
15.5695,
19.63284,
20.83346,
18.35459,
2099, 
17.68289,
17.23999,
19.33347,
19.51884,
17.52702,
18.92673,
15.30216,
16.89778,
20.13014,
20.19712,
17.41999,
17.4554,
20.20658,
16.78686,
16.84985,
16.93914,
18.71968,
18.52519,
16.80198,
17.2901,
20.60448,
19.51011,
17.35524,
15.58004,
19.64028,
20.89146,
18.35213,
2100, 
17.67993,
17.20252,
19.27422,
19.39601,
17.38461,
18.81283,
15.30205,
16.97091,
20.05931,
20.20464,
17.39693,
17.43088,
20.11125,
16.827,
16.84849,
16.83313,
18.74221,
18.53943,
16.80894,
17.35919,
20.56792,
19.59353,
17.25748,
15.58777,
19.65429,
20.93464,
18.35355];
