real main.em.dem.neu.CCpPlaWa[27](t) = [1971, 
21.42857,
21.42857,
21.42857,
21.42857,
21.42857,
21.42857,
21.42857,
21.42857,
21.42857,
21.42857,
21.42857,
21.42857,
21.42857,
21.42857,
21.42857,
21.42857,
21.42857,
21.42857,
21.42857,
21.42857,
21.42857,
21.42857,
21.42857,
21.42857,
21.42857,
21.42857,
0.00000,
1972, 
21.42857,
21.42857,
21.42857,
21.42857,
21.42857,
21.42857,
21.42857,
21.42857,
21.42857,
21.42857,
21.42857,
21.42857,
21.42857,
21.42857,
21.42857,
21.42857,
21.42857,
21.42857,
21.42857,
21.42857,
21.42857,
21.42857,
21.42857,
21.42857,
21.42857,
21.42857,
21.42857,
1973, 
19.47283,
19.47212,
17.94446,
17.8065,
19.44883,
19.47675,
19.43798,
19.47369,
19.4719,
21.78716,
19.45538,
19.11572,
19.4623,
18.62883,
19.45753,
19.40189,
18.99923,
19.50445,
19.4629,
19.43057,
17.04424,
19.42742,
19.46617,
19.03708,
16.91058,
19.46902,
19.37362,
1974, 
19.57566,
19.57565,
18.04456,
16.75057,
19.50672,
19.57978,
19.52865,
19.57047,
19.58998,
21.79531,
19.53165,
19.21642,
19.56458,
18.93623,
19.51558,
18.87436,
18.34974,
19.61607,
19.51136,
19.43929,
17.28199,
19.04326,
19.5603,
19.38311,
17.11101,
19.55496,
19.3741,
1975, 
19.57485,
19.58175,
18.0139,
16.86592,
19.49141,
19.5729,
19.5016,
19.52482,
19.57371,
21.83698,
19.5377,
19.21735,
19.55476,
18.93431,
19.49765,
18.86878,
18.3387,
19.63092,
19.49101,
19.44596,
17.30653,
19.02609,
19.56834,
19.38633,
17.08792,
19.54389,
19.36915,
1976, 
19.50322,
19.51068,
17.86866,
16.69108,
19.43539,
19.50352,
19.43962,
19.48202,
19.48995,
21.83995,
19.47153,
19.14416,
19.47741,
18.87678,
19.43232,
18.74785,
18.2482,
19.49267,
19.4287,
19.38773,
17.22039,
18.96931,
19.49613,
19.31781,
16.93726,
19.49884,
19.28917,
1977, 
19.33126,
19.42717,
17.72793,
16.45202,
19.37481,
19.4227,
17.95374,
19.39824,
19.40137,
21.85654,
19.39042,
19.07097,
19.39868,
18.80807,
19.35296,
18.58838,
18.10434,
19.42084,
19.36693,
19.34644,
17.22271,
18.91413,
19.41852,
19.24664,
16.73077,
19.42709,
19.18073,
1978, 
19.30789,
19.37293,
17.63606,
16.2767,
19.3411,
19.36842,
18.04004,
19.35479,
19.35397,
21.84828,
19.34397,
19.03386,
19.35555,
18.7793,
19.30429,
18.46783,
18.01291,
19.35807,
19.33307,
19.31947,
17.26137,
18.97414,
19.36759,
19.20651,
16.74539,
19.37841,
19.11832,
1979, 
19.26559,
19.34466,
17.54775,
16.19553,
19.32454,
19.3418,
17.80752,
19.33669,
19.33605,
21.85979,
19.31609,
19.02172,
19.33397,
18.77387,
19.27626,
18.39307,
17.96787,
19.33111,
19.31769,
19.30766,
17.33779,
18.91142,
19.34116,
19.19135,
16.63716,
19.35329,
19.08069,
1980, 
19.23879,
19.33149,
17.47728,
16.14712,
19.31625,
19.32811,
17.68567,
19.3249,
19.32543,
21.87071,
19.30481,
19.02127,
19.32425,
18.75995,
19.26194,
18.34746,
17.93696,
19.32701,
19.31118,
19.30394,
17.43378,
18.92336,
19.32858,
19.18385,
16.65343,
19.3401,
19.05614,
1981, 
19.22751,
19.32648,
17.4182,
16.14269,
19.31247,
19.32307,
17.59583,
19.32145,
19.32112,
21.90345,
19.30136,
19.02154,
19.32243,
18.76293,
19.24912,
18.32307,
17.92784,
19.31909,
19.30965,
19.30241,
17.51363,
18.94243,
19.32365,
19.18476,
16.68836,
19.33398,
19.04374,
1982, 
19.08805,
19.32405,
17.36147,
16.09438,
19.31184,
19.32071,
17.51789,
19.32233,
19.31899,
21.93477,
19.29302,
19.01922,
19.32005,
18.65314,
19.23343,
18.30208,
17.9269,
19.31531,
19.3081,
19.30172,
17.57755,
18.95782,
19.32137,
19.1386,
16.66955,
19.33347,
19.02661,
1983, 
19.10196,
19.32202,
17.3561,
16.08789,
19.31061,
19.31925,
17.49686,
19.32107,
19.31716,
21.92184,
19.29731,
19.01975,
19.31819,
18.60432,
19.20522,
18.28888,
17.93354,
19.31307,
19.30673,
19.3012,
17.69057,
18.95657,
19.3191,
19.12785,
16.69266,
19.33274,
19.02336,
1984, 
19.08633,
19.31874,
17.36802,
15.96691,
19.30945,
19.31676,
17.43069,
19.32024,
19.31476,
21.89481,
19.29188,
19.02026,
19.31564,
18.57406,
19.18942,
18.23064,
17.93223,
19.30932,
19.30523,
19.30073,
17.74164,
18.97276,
19.31638,
19.12516,
16.69068,
19.33008,
19.01402,
1985, 
19.06719,
19.31492,
17.34455,
15.91713,
19.30746,
19.31321,
17.37221,
19.31797,
19.31335,
21.91983,
19.28802,
19.02267,
19.31247,
18.53905,
19.17463,
18.19808,
17.93306,
19.30686,
19.30394,
19.30038,
17.76858,
19.00868,
19.3132,
19.11641,
16.69837,
19.32492,
19.00772,
1986, 
19.04263,
19.3114,
17.33381,
15.85859,
19.30549,
19.31012,
17.32134,
19.3138,
19.3115,
21.89071,
19.28592,
19.02252,
19.30959,
18.51489,
19.16856,
18.16194,
17.93597,
19.30452,
19.30285,
19.30021,
17.75166,
19.03645,
19.31005,
19.10384,
16.71984,
19.31939,
19.00228,
1987, 
19.02331,
19.30847,
17.3582,
15.79452,
19.3039,
19.30692,
17.2319,
19.31071,
19.3083,
21.8691,
19.28498,
19.02554,
19.30698,
18.49178,
19.16189,
18.12397,
17.93976,
19.30291,
19.30195,
19.30034,
17.77559,
19.07044,
19.30751,
19.09287,
16.72871,
19.31487,
19.00289,
1988, 
19.01465,
19.30623,
17.35851,
15.72897,
19.30282,
19.30465,
17.26034,
19.30873,
19.30548,
21.86104,
19.2844,
19.02789,
19.30499,
18.472,
19.15608,
18.08615,
17.9415,
19.30188,
19.30134,
19.51634,
17.83191,
19.1025,
19.30555,
19.08477,
16.71373,
19.31038,
19.00233,
1989, 
18.99113,
19.30468,
17.3634,
15.66542,
19.30213,
19.30306,
17.26394,
19.30651,
19.30416,
21.86915,
19.28419,
19.03007,
19.30386,
18.45291,
19.13457,
18.03432,
17.91883,
19.30099,
19.30093,
19.69123,
17.9201,
19.12563,
19.30415,
19.07914,
16.6808,
19.30726,
18.99956,
1990, 
18.97682,
19.3039,
17.35685,
15.60295,
19.30173,
19.30249,
17.29451,
19.30542,
19.30328,
21.86463,
19.28576,
19.03148,
19.30327,
18.43322,
19.12205,
17.99417,
17.91842,
19.30063,
19.30073,
19.82397,
18.01514,
19.15988,
19.30344,
19.07428,
16.71146,
19.30597,
18.99599,
1991, 
18.95907,
19.30331,
17.34434,
15.54522,
19.30153,
19.30182,
17.32206,
19.3047,
19.30284,
21.84134,
19.28728,
19.02278,
19.30265,
18.42552,
19.10056,
17.95043,
17.91069,
19.30038,
19.30058,
19.95352,
18.10101,
19.1893,
19.3029,
19.06647,
16.71408,
19.30494,
18.9931,
1992, 
18.94223,
19.30312,
17.33249,
15.48576,
19.30142,
19.30141,
17.34822,
19.30446,
19.30266,
21.81346,
19.28895,
19.0084,
19.30247,
18.4251,
19.12947,
17.90291,
17.90447,
19.30032,
19.30049,
20.06248,
18.16788,
19.2138,
19.30268,
19.06045,
16.72322,
19.30454,
18.9921,
1993, 
18.92851,
19.29605,
17.32083,
15.45839,
19.30151,
19.28156,
17.37021,
19.30488,
19.3028,
21.77473,
19.2989,
18.99809,
19.30151,
18.43084,
19.14365,
17.83583,
17.89327,
19.30025,
19.30048,
20.03259,
18.2405,
19.22698,
19.29722,
19.05774,
16.79326,
19.30521,
18.99212,
1994, 
18.90871,
19.28271,
17.3258,
15.43301,
19.30171,
19.24783,
17.26647,
19.30595,
19.30308,
21.75366,
19.30208,
18.98765,
19.30002,
18.43732,
19.15505,
17.76662,
17.8933,
19.30021,
19.3005,
19.99573,
18.31426,
19.22777,
19.29164,
19.05196,
16.79389,
19.30703,
18.99064,
1995, 
18.89047,
19.27069,
17.32185,
15.41138,
19.30204,
19.21938,
17.14865,
19.3077,
19.30396,
21.74231,
19.30568,
18.98211,
19.29988,
18.44703,
19.16708,
17.69414,
17.89279,
19.30016,
19.30056,
19.95602,
18.38897,
19.22477,
19.28555,
19.04781,
16.82107,
19.30891,
18.99159,
1996, 
18.87307,
19.25771,
17.36468,
15.39634,
19.30243,
19.18994,
16.99333,
19.30948,
19.30449,
21.73269,
19.30859,
18.97944,
19.29897,
18.45081,
19.18113,
17.60892,
17.89612,
19.30008,
19.30064,
19.9269,
18.45543,
19.21761,
19.27866,
19.04378,
16.88216,
19.31104,
18.99497,
1997, 
18.85665,
19.24424,
17.36805,
15.38675,
19.30296,
19.16358,
16.82854,
19.31152,
19.305,
21.73932,
19.31132,
18.97849,
19.298,
18.45827,
19.19885,
17.51549,
17.89805,
19.29999,
19.30074,
19.90631,
18.512,
19.20602,
19.27126,
19.0414,
16.9359,
19.31301,
18.99203,
1998, 
18.86081,
19.23026,
17.36988,
15.38114,
19.30345,
19.14093,
16.67818,
19.31361,
19.30545,
21.7415,
19.31302,
18.97827,
19.29686,
18.47231,
19.21518,
17.41204,
17.9037,
19.29996,
19.30085,
19.82591,
18.54527,
19.18876,
19.26346,
19.04754,
16.98531,
19.31471,
18.98765,
1999, 
18.86189,
19.21587,
17.37911,
15.37755,
19.30398,
19.11774,
16.54424,
19.31539,
19.30601,
21.73252,
19.3121,
18.97535,
19.29605,
18.48565,
19.22798,
17.31709,
17.90836,
19.29988,
19.30099,
19.76727,
18.51953,
19.15974,
19.25524,
19.05558,
17.0421,
19.31575,
18.98143,
2000, 
18.8588,
19.19956,
17.39175,
15.37259,
19.30443,
19.08855,
16.42381,
19.31718,
19.30621,
21.74029,
19.30759,
18.96386,
19.29561,
18.48865,
19.2366,
17.2107,
17.91648,
19.29977,
19.30105,
19.73632,
18.55008,
19.13017,
19.24685,
19.05834,
17.04591,
19.31656,
18.97264,
2001, 
18.85439,
19.18184,
17.39617,
15.36943,
19.30466,
19.06603,
16.32716,
19.31797,
19.3061,
21.76173,
19.3046,
18.95985,
19.29406,
18.49544,
19.23855,
17.11099,
17.92219,
19.29972,
19.30109,
19.72674,
18.58505,
19.10107,
19.23854,
19.0626,
17.10146,
19.31677,
18.96174,
2002, 
18.85074,
19.1639,
17.41919,
15.36754,
19.30486,
19.05053,
16.25191,
19.31786,
19.30564,
21.77302,
19.30105,
18.95359,
19.29383,
18.49652,
19.22959,
17.02335,
17.93309,
19.29964,
19.30112,
19.72093,
18.59186,
19.05626,
19.22978,
19.06821,
17.11804,
19.31637,
18.95384,
2003, 
18.84867,
19.1445,
17.44223,
15.36588,
19.30489,
19.04513,
16.19236,
19.31788,
19.30554,
21.79353,
19.28888,
18.92073,
19.29147,
18.4923,
19.21581,
17.04476,
17.9454,
19.29958,
19.30112,
19.76031,
18.61379,
18.98309,
19.22544,
19.07513,
17.18765,
19.31454,
18.9507,
2004, 
18.84706,
19.12441,
17.46806,
15.3657,
19.3052,
19.04999,
16.15519,
19.31704,
19.30544,
21.81211,
19.28322,
18.90708,
19.28965,
18.47903,
19.19459,
17.09982,
17.95787,
19.29948,
19.30118,
19.8257,
18.63492,
18.951,
19.22241,
19.08113,
17.24988,
19.31442,
18.95078,
2005, 
18.83606,
19.09973,
17.49232,
15.36371,
19.30453,
19.06084,
16.12975,
19.3132,
19.30427,
21.84709,
19.27936,
18.90664,
19.28669,
18.43699,
19.16181,
17.16847,
17.97053,
19.29935,
19.30108,
19.92134,
18.6673,
18.93248,
19.21863,
19.07909,
17.33838,
19.31103,
18.95602,
2006, 
18.82613,
19.07257,
17.52187,
15.36137,
19.30421,
19.07505,
16.11012,
19.09294,
19.30347,
21.88387,
19.27511,
18.90173,
19.28361,
18.40613,
19.12436,
17.24694,
17.98774,
19.29924,
19.30103,
20.03005,
18.69326,
18.91513,
19.21625,
19.0776,
17.43218,
19.30839,
18.96561,
2007, 
18.81499,
19.04371,
17.55344,
15.35916,
19.30381,
19.0839,
16.13295,
18.87099,
19.30258,
21.92669,
19.27253,
18.90669,
19.28068,
18.35152,
19.08317,
17.34584,
18.00986,
19.29915,
19.30096,
20.18866,
18.72315,
18.91671,
19.21465,
19.0733,
17.51335,
19.30617,
18.9884,
2008, 
18.80401,
19.01616,
17.58905,
15.35719,
19.30333,
19.0723,
16.15655,
18.70135,
19.30186,
21.94778,
19.26958,
18.91167,
19.27867,
18.28682,
19.03142,
17.44502,
18.03655,
19.29907,
19.30089,
20.36858,
18.74868,
18.92917,
19.21351,
19.06605,
17.58176,
19.30426,
19.02328,
2009, 
18.7979,
18.99057,
17.62173,
15.3563,
19.30288,
19.0508,
16.28536,
18.54162,
19.30138,
21.95187,
19.26503,
18.92274,
19.27656,
18.23601,
18.99182,
17.5427,
18.06678,
19.29903,
19.30083,
20.51012,
18.768,
18.95429,
19.21222,
19.0572,
17.61102,
19.30313,
19.0569,
2010, 
18.79308,
18.96213,
17.65706,
15.3673,
19.30253,
19.06036,
16.29907,
18.37154,
19.30105,
21.91518,
19.26179,
18.93173,
19.27419,
18.25395,
18.967,
17.63979,
18.10014,
19.29905,
19.30506,
20.65722,
18.77595,
18.98597,
19.21054,
19.04703,
17.66114,
19.30251,
19.10414,
2011, 
18.78785,
18.92664,
17.69653,
15.37285,
19.3021,
19.06127,
16.32126,
18.18585,
19.30077,
21.90236,
19.25746,
18.94451,
19.2676,
18.20497,
18.92211,
17.72606,
18.13504,
19.29908,
19.31003,
20.82383,
18.80906,
19.01608,
19.21009,
19.03315,
17.69176,
19.30185,
19.15476,
2012, 
18.78316,
18.88628,
17.73725,
15.4478,
19.30175,
19.05458,
16.3158,
18.00846,
19.30059,
21.88682,
19.25248,
18.96,
19.25815,
18.15404,
18.87465,
17.80604,
18.16902,
19.29914,
19.31552,
20.98906,
18.82611,
19.04565,
19.20919,
19.0139,
17.71834,
19.3014,
19.21008,
2013, 
18.78022,
18.84523,
17.78248,
15.49443,
19.30147,
19.06097,
16.33521,
17.90792,
19.3,
21.84071,
19.25534,
18.99168,
19.25396,
18.1267,
18.83709,
17.82121,
18.20888,
19.29922,
19.32184,
21.15666,
18.8497,
19.12149,
19.20915,
18.99224,
17.75643,
19.30103,
19.26696,
2014, 
18.77833,
18.7967,
17.83047,
15.51457,
19.30121,
19.05902,
16.31835,
17.75503,
19.3,
21.79905,
19.25265,
19.01345,
19.24394,
18.0991,
18.78771,
17.81557,
18.24773,
19.29926,
19.32887,
21.31934,
18.87385,
19.1438,
19.20934,
18.97046,
17.79906,
19.30077,
19.32355,
2015, 
18.77795,
18.74007,
17.88218,
15.54921,
19.301,
19.05567,
16.29545,
17.61251,
19.3,
21.75583,
19.24757,
19.02917,
19.23237,
18.08922,
18.75183,
17.79254,
18.28677,
19.29934,
19.33632,
21.47588,
18.89342,
19.14108,
19.20999,
18.94512,
17.84353,
19.30058,
19.37796,
2016, 
18.77821,
18.67903,
17.93634,
15.59559,
19.30085,
19.04356,
16.27431,
17.67615,
19.3,
21.7057,
19.2452,
19.05064,
19.2193,
18.09666,
18.73629,
17.74608,
18.32311,
19.29944,
19.34423,
21.62733,
18.91368,
19.14336,
19.2144,
18.91626,
17.88914,
19.30046,
19.43339,
2017, 
18.77709,
18.61287,
17.99185,
15.6321,
19.30071,
19.04059,
16.22305,
17.70027,
19.3,
21.64995,
19.24573,
19.06771,
19.20482,
18.07479,
18.72253,
17.68763,
18.35618,
19.29953,
19.35295,
21.77182,
18.93174,
19.13371,
19.22344,
18.88396,
17.94096,
19.30036,
19.48415,
2018, 
18.7746,
18.54071,
18.05059,
15.65083,
19.30057,
19.044,
16.17311,
17.7116,
19.3,
21.62819,
19.25066,
19.08371,
19.18797,
18.04332,
18.67622,
17.62193,
18.38536,
19.29957,
19.36237,
21.92337,
18.95277,
19.12003,
19.23787,
18.84653,
17.99281,
19.30026,
19.53897,
2019, 
18.77186,
18.46985,
18.1116,
15.66654,
19.30045,
19.06728,
16.02796,
17.78092,
19.3,
21.5875,
19.2619,
19.09585,
19.17456,
18.00853,
18.63184,
17.55211,
18.41641,
19.2996,
19.3716,
22.07615,
18.96864,
19.12356,
19.25854,
18.80447,
18.04461,
19.30019,
19.59582,
2020, 
18.77001,
18.40081,
18.17348,
15.6699,
19.30035,
19.05192,
15.97403,
17.83954,
19.3,
21.5416,
19.27439,
19.09425,
19.16083,
17.96769,
18.58411,
17.48403,
18.44623,
19.29956,
19.37801,
22.22099,
18.97965,
19.12516,
19.28226,
18.75564,
18.09038,
19.30014,
19.65058,
2021, 
18.77039,
18.34345,
18.208,
15.67552,
19.30029,
19.03326,
15.90968,
17.82282,
19.3,
21.43476,
19.28356,
19.08468,
19.1505,
17.96298,
18.58579,
17.45171,
18.47268,
19.29952,
19.3838,
22.32477,
18.97474,
19.1188,
19.30569,
18.7075,
18.05783,
19.30012,
19.70738,
2022, 
18.7695,
18.27728,
18.26599,
15.6316,
19.30022,
19.02129,
15.84019,
17.86618,
19.3,
21.36301,
19.30261,
19.07824,
19.14105,
17.92948,
18.55053,
17.38903,
18.50369,
19.29947,
19.38893,
22.45512,
18.98181,
19.13209,
19.33435,
18.65094,
18.07838,
19.30009,
19.75985,
2023, 
18.76993,
18.22064,
18.3193,
15.60011,
19.30017,
18.99646,
15.7844,
17.86853,
19.30383,
21.2955,
19.31928,
19.06697,
19.15363,
17.88877,
18.51623,
17.34162,
18.52973,
19.2994,
19.39573,
22.5605,
18.98844,
19.1369,
19.36434,
18.58954,
18.09402,
19.29819,
19.80622,
2024, 
18.7702,
18.17107,
18.37263,
15.58534,
19.28881,
18.92817,
15.73337,
17.91409,
19.31305,
21.21111,
19.33565,
19.02579,
19.17365,
17.84731,
18.45409,
17.2366,
18.55787,
19.15852,
19.40547,
22.65908,
18.98712,
19.14868,
19.39558,
18.50683,
18.06832,
19.27626,
19.84045,
2025, 
18.77062,
18.12771,
18.42257,
15.57231,
19.28676,
18.85418,
15.6873,
17.96504,
19.33027,
21.11798,
19.35329,
18.98623,
19.20428,
17.80295,
18.40609,
17.17124,
18.58575,
19.08234,
19.41797,
22.74611,
18.9926,
19.17226,
19.42756,
18.42359,
18.05136,
19.26023,
19.87413,
2026, 
18.77176,
18.08755,
18.47217,
15.61886,
19.2847,
18.80591,
15.64496,
18.02311,
19.42345,
21.02553,
19.37152,
18.96264,
19.27122,
17.75412,
18.34889,
17.15026,
18.61163,
19.05679,
19.44201,
22.81685,
19.05423,
19.19544,
19.46064,
18.34403,
18.04927,
19.25451,
19.90506,
2027, 
18.7734,
18.05502,
18.52017,
15.70275,
19.28232,
18.7523,
15.60643,
18.10409,
19.5323,
20.93766,
19.3889,
18.93834,
19.35109,
17.70525,
18.28395,
17.11775,
18.63562,
19.03166,
19.4681,
22.8796,
19.1412,
19.21933,
19.49381,
18.26644,
18.05384,
19.24776,
19.93244,
2028, 
18.77507,
18.02957,
18.56569,
15.82956,
19.28036,
18.7034,
15.57041,
18.18061,
19.67519,
20.84984,
19.40633,
18.91542,
19.4432,
17.6553,
18.22861,
17.08104,
18.65868,
19.01094,
19.49819,
22.92993,
19.25998,
19.24361,
19.52632,
18.18345,
18.06174,
19.24291,
19.95699,
2029, 
18.77671,
18.00833,
18.6079,
15.97867,
19.27902,
18.62453,
15.53663,
18.20618,
19.85042,
20.7767,
19.42319,
18.88154,
19.54299,
17.60489,
18.17012,
17.04926,
18.67482,
18.98609,
19.53234,
22.96875,
19.40357,
19.25336,
19.55865,
18.08332,
18.06301,
19.22891,
19.97606,
2030, 
18.77815,
17.99508,
18.64532,
16.15919,
19.27808,
18.55727,
15.50573,
18.25632,
20.05732,
20.70832,
19.4406,
18.85994,
19.65051,
17.55662,
18.11256,
17.01581,
18.68864,
18.91215,
19.57055,
22.99891,
19.56719,
19.26313,
19.59021,
17.97985,
18.05783,
19.22254,
19.99072,
2031, 
18.78278,
17.98959,
18.68096,
16.3641,
19.27772,
18.53744,
15.47809,
18.29422,
20.31003,
20.64447,
19.4632,
18.86342,
19.76258,
17.51291,
18.05663,
16.999,
18.7023,
18.86278,
19.61349,
23.01919,
19.74542,
19.27084,
19.62305,
17.88181,
18.06654,
19.24556,
20.00841,
2032, 
18.79228,
17.99266,
18.71835,
16.59604,
19.27751,
18.54049,
15.45413,
18.32133,
20.57371,
20.5842,
19.49479,
18.8876,
19.8853,
17.47574,
18.00545,
16.98713,
18.71567,
18.84176,
19.66281,
23.02465,
19.93266,
19.276,
19.65794,
17.77804,
18.08055,
19.29812,
20.02604,
2033, 
18.80899,
18.00107,
18.75694,
16.84173,
19.27738,
18.56682,
15.43361,
18.34086,
20.85572,
20.52914,
19.53276,
18.93286,
19.99981,
17.4455,
17.9555,
16.98033,
18.72831,
18.82372,
19.71167,
23.01875,
20.11112,
19.27938,
19.6965,
17.6826,
18.10325,
19.40254,
20.04318,
2034, 
18.83172,
18.01833,
18.7952,
17.09477,
19.28664,
18.65049,
15.41676,
18.35692,
21.13786,
20.4789,
19.57287,
19.00855,
20.11359,
17.42203,
17.93344,
17.03792,
18.7389,
18.91466,
19.76178,
23.00188,
20.29123,
19.28209,
19.73638,
17.60424,
18.17497,
19.57363,
20.07187,
2035, 
18.86067,
18.04345,
18.83246,
17.35036,
19.28842,
18.75019,
15.40385,
18.36583,
21.4141,
20.43453,
19.613,
19.092,
20.22345,
17.40581,
17.89023,
17.07342,
18.74775,
18.95915,
19.81306,
22.97408,
20.46222,
19.28424,
19.77896,
17.53094,
18.25474,
19.77571,
20.09444,
2036, 
18.89679,
18.07798,
18.86896,
17.57035,
19.28995,
18.84875,
15.39531,
18.36915,
21.63317,
20.39631,
19.65024,
19.17082,
20.31323,
17.39827,
17.84959,
17.09459,
18.75518,
18.97326,
19.86075,
22.93645,
20.59414,
19.2861,
19.82112,
17.46085,
18.34441,
20.00494,
20.10866,
2037, 
18.93819,
18.11956,
18.90155,
17.77188,
19.29187,
18.95865,
15.39108,
18.368,
21.83309,
20.36443,
19.69462,
19.25359,
20.39274,
17.39953,
17.81389,
17.12353,
18.76119,
18.99158,
19.90705,
22.88849,
20.70027,
19.28804,
19.86334,
17.40196,
18.45557,
20.2644,
20.12077,
2038, 
18.98337,
18.16704,
18.92872,
17.95916,
19.29362,
19.06938,
15.39128,
18.36897,
22.00241,
20.33809,
19.74424,
19.33625,
20.46313,
17.40869,
17.7787,
17.1535,
18.76748,
19.00976,
19.95464,
22.83224,
20.78091,
19.29019,
19.90131,
17.35571,
18.5817,
20.54438,
20.13041,
2039, 
19.03044,
18.21868,
18.95242,
18.13159,
19.2949,
19.18856,
15.39596,
18.37356,
22.14131,
20.3169,
19.79655,
19.41879,
20.52427,
17.42879,
17.74398,
17.18339,
18.77282,
19.0309,
20.00092,
22.76916,
20.84115,
19.29265,
19.93286,
17.32573,
18.72403,
20.83322,
20.13808,
2040, 
19.08026,
18.27384,
18.9758,
18.29376,
19.29585,
19.30924,
15.40598,
18.37559,
22.24792,
20.29771,
19.85195,
19.5017,
20.57693,
17.45212,
17.70972,
17.21874,
18.77793,
19.08808,
20.04446,
22.70076,
20.88805,
19.29498,
19.95933,
17.30132,
18.87743,
21.14756,
20.14778,
2041, 
19.1304,
18.32945,
18.99429,
18.44353,
19.29643,
19.40734,
15.42396,
18.37925,
22.31686,
20.28102,
19.90738,
19.57232,
20.62217,
17.47823,
17.67616,
17.2417,
18.7854,
19.1292,
20.0834,
22.6294,
20.92211,
19.2972,
19.97547,
17.28423,
19.01901,
21.45562,
20.15258,
2042, 
19.18102,
18.38575,
19.00827,
18.58539,
19.29688,
19.49102,
15.44727,
18.38186,
22.36542,
20.26504,
19.95986,
19.63511,
20.66113,
17.50525,
17.64641,
17.26366,
18.79552,
19.14884,
20.1178,
22.55731,
20.94689,
19.29924,
19.98479,
17.27216,
19.14713,
21.75482,
20.15352,
2043, 
19.23097,
18.44297,
19.01747,
18.72278,
19.29729,
19.56412,
15.47414,
18.38113,
22.39068,
20.24941,
20.00801,
19.69049,
20.69561,
17.53043,
17.61819,
17.28319,
18.80795,
19.16462,
20.14855,
22.48423,
20.96472,
19.30103,
19.99073,
17.26425,
19.25957,
22.0193,
20.15209,
2044, 
19.28124,
18.50038,
19.02367,
18.85698,
19.2977,
19.62957,
15.49955,
18.37599,
22.40139,
20.23322,
20.0523,
19.739,
20.72643,
17.55178,
17.59168,
17.3001,
18.82159,
19.1711,
20.17572,
22.40681,
20.97812,
19.30258,
19.99316,
17.25728,
19.35526,
22.25397,
20.14707,
2045, 
19.33209,
18.55674,
19.02933,
18.98855,
19.29811,
19.69218,
15.52435,
18.3659,
22.40105,
20.21486,
20.09232,
19.78039,
20.75381,
17.57239,
17.56656,
17.31296,
18.8362,
19.16708,
20.19942,
22.32285,
20.98804,
19.30377,
19.99211,
17.25091,
19.43081,
22.44796,
20.13774,
2046, 
19.38094,
18.61027,
19.03431,
19.11725,
19.29857,
19.75181,
15.55239,
18.35268,
22.39276,
20.19549,
20.12785,
19.81391,
20.77816,
17.59231,
17.54228,
17.32156,
18.85167,
19.15818,
20.21996,
22.23579,
20.99475,
19.30468,
19.98701,
17.24874,
19.48688,
22.60345,
20.12548,
2047, 
19.42692,
18.65985,
19.03948,
19.24122,
19.29905,
19.80941,
15.58024,
18.33455,
22.37796,
20.17557,
20.15861,
19.84005,
20.79945,
17.61071,
17.52061,
17.32618,
18.86774,
19.1478,
20.23699,
22.1478,
20.99839,
19.30525,
19.97868,
17.24688,
19.52665,
22.72944,
20.11121,
2048, 
19.46945,
18.70516,
19.04577,
19.35963,
19.29955,
19.86883,
15.60658,
18.31206,
22.35834,
20.15497,
20.18527,
19.85965,
20.81859,
17.62699,
17.49981,
17.32634,
18.88418,
19.13514,
20.25172,
22.05813,
21.00004,
19.3055,
19.96756,
17.24299,
19.55682,
22.83058,
20.09488,
2049, 
19.50793,
18.74531,
19.05362,
19.47344,
19.30007,
19.93002,
15.63396,
18.28605,
22.33497,
20.13462,
20.20833,
19.87305,
20.83591,
17.63953,
17.47995,
17.32222,
18.90071,
19.12032,
20.26398,
21.96722,
20.99971,
19.30545,
19.95375,
17.23496,
19.58477,
22.92736,
20.0768,
2050, 
19.54201,
18.78002,
19.06328,
19.58239,
19.30063,
19.9937,
15.67769,
18.25728,
22.30898,
20.11562,
20.22826,
19.8807,
20.85169,
17.65205,
17.4601,
17.31404,
18.91729,
19.12666,
20.27355,
21.87585,
20.9977,
19.30525,
19.93729,
17.22259,
19.62071,
22.99025,
20.0606,
2051, 
19.57126,
18.809,
19.07516,
19.68622,
19.30127,
20.05832,
15.73791,
18.2274,
22.28097,
20.09911,
20.24547,
19.8829,
20.86623,
17.66664,
17.44043,
17.30224,
18.93389,
19.15684,
20.28029,
21.78478,
20.99442,
19.30486,
19.91825,
17.20383,
19.67292,
23.03047,
20.04724,
2052, 
19.59569,
18.83234,
19.08922,
19.78373,
19.30197,
20.12339,
15.81558,
18.19792,
22.2512,
20.08544,
20.25976,
19.87988,
20.87939,
17.68285,
17.4222,
17.28763,
18.95048,
19.20747,
20.28386,
21.69624,
20.99018,
19.30447,
19.89677,
17.17994,
19.74579,
23.05059,
20.03708,
2053, 
19.61436,
18.85036,
19.10575,
19.87617,
19.30277,
20.18843,
15.91559,
18.17359,
22.21922,
20.07512,
20.27076,
19.87196,
20.89188,
17.70178,
17.40657,
17.27161,
18.96636,
19.2832,
20.28481,
21.60927,
20.98552,
19.30426,
19.87311,
17.15931,
19.84358,
23.05554,
20.03112,
2054, 
19.62818,
18.86325,
19.12392,
19.96309,
19.30364,
20.25392,
16.03758,
18.15356,
22.18431,
20.06698,
20.27825,
19.8594,
20.90415,
17.72378,
17.39192,
17.25386,
18.98211,
19.38093,
20.28353,
21.52449,
20.98073,
19.30416,
19.84734,
17.14297,
19.96384,
23.04501,
20.02922,
2055, 
19.63751,
18.87139,
19.14331,
20.04486,
19.30457,
20.31705,
16.17311,
18.13811,
22.14769,
20.06049,
20.28288,
19.84263,
20.91645,
17.74603,
17.37824,
17.23483,
18.99754,
19.49466,
20.28037,
21.4423,
20.97615,
19.30415,
19.81965,
17.1234,
20.10238,
23.0316,
20.0307,
2056, 
19.64192,
18.87464,
19.16294,
20.12168,
19.30558,
20.3742,
16.31412,
18.12666,
22.10843,
20.05504,
20.28502,
19.82197,
20.92863,
17.76717,
17.36586,
17.21474,
19.01159,
19.62057,
20.27562,
21.36319,
20.97194,
19.30422,
19.79067,
17.09457,
20.25463,
23.01297,
20.03467,
2057, 
19.64135,
18.87337,
19.18302,
20.19192,
19.30681,
20.42741,
16.46104,
18.12329,
22.0676,
20.05171,
20.28558,
19.79793,
20.94042,
17.7892,
17.35563,
17.19392,
19.02393,
19.75452,
20.26948,
21.28908,
20.96815,
19.30453,
19.76083,
17.06658,
20.41984,
22.98927,
20.04144,
2058, 
19.63594,
18.8676,
19.20349,
20.25645,
19.30834,
20.477,
16.60654,
18.12717,
22.02563,
20.05005,
20.28511,
19.77114,
20.95224,
17.81232,
17.34739,
17.17308,
19.03459,
19.89385,
20.26245,
21.21941,
20.96465,
19.30514,
19.73055,
17.04362,
20.59271,
22.95846,
20.05042,
2059, 
19.62624,
18.85761,
19.22383,
20.31495,
19.3103,
20.52224,
16.74588,
18.1383,
21.98294,
20.04904,
20.28388,
19.74203,
20.964,
17.8362,
17.34118,
17.15263,
19.04428,
20.03642,
20.25459,
21.15458,
20.96184,
19.30616,
19.70023,
17.02681,
20.76655,
22.91811,
20.06129,
2060, 
19.61277,
18.84418,
19.24375,
20.36721,
19.31285,
20.56254,
16.86901,
18.1563,
21.93978,
20.04763,
20.28124,
19.71101,
20.97597,
17.86084,
17.33651,
17.1339,
19.05328,
20.16813,
20.24602,
21.09499,
20.95992,
19.30775,
19.66949,
17.00475,
20.93538,
22.86597,
20.0716,
2061, 
19.59583,
18.82771,
19.26244,
20.4131,
19.31606,
20.59804,
16.97282,
18.1774,
21.89653,
20.04458,
20.27708,
19.67858,
20.98806,
17.88434,
17.33222,
17.11722,
19.0618,
20.28522,
20.23681,
21.04071,
20.95889,
19.30997,
19.63856,
16.98077,
21.09209,
22.79942,
20.08039,
2062, 
19.57574,
18.80865,
19.27944,
20.45181,
19.32006,
20.62898,
17.0576,
18.20252,
21.85412,
20.04022,
20.27119,
19.64512,
20.99994,
17.90801,
17.32886,
17.10323,
19.06977,
20.38774,
20.22686,
20.99262,
20.95867,
19.31309,
19.6077,
16.96064,
21.2328,
22.72025,
20.08772,
2063, 
19.55308,
18.78746,
19.29437,
20.48366,
19.3248,
20.65556,
17.12006,
18.22736,
21.81327,
20.03367,
20.2634,
19.61106,
21.01184,
17.93119,
17.32705,
17.09202,
19.07765,
20.47513,
20.21599,
20.94971,
20.95929,
19.31707,
19.57693,
16.94018,
21.35339,
22.62945,
20.09292,
2064, 
19.52839,
18.76474,
19.30812,
20.50852,
19.33028,
20.67842,
17.16135,
18.25137,
21.77483,
20.02563,
20.25345,
19.57672,
21.02374,
17.95436,
17.32784,
17.08381,
19.08523,
20.55006,
20.20444,
20.91175,
20.96066,
19.32201,
19.54631,
16.92446,
21.45208,
22.53002,
20.09634,
2065, 
19.50222,
18.74095,
19.32152,
20.52677,
19.33658,
20.69889,
17.18492,
18.2746,
21.7383,
20.01695,
20.24106,
19.54247,
21.03557,
17.97766,
17.33367,
17.07871,
19.09263,
20.61416,
20.19235,
20.87852,
20.96265,
19.32805,
19.5159,
16.91548,
21.53191,
22.4243,
20.0983,
2066, 
19.475,
18.7165,
19.33487,
20.53906,
19.34326,
20.71719,
17.19427,
18.29333,
21.70363,
20.00799,
20.22608,
19.5086,
21.04728,
18.00066,
17.34698,
17.07619,
19.09944,
20.6676,
20.17988,
20.84941,
20.96512,
19.33467,
19.48591,
16.91252,
21.59174,
22.31616,
20.09848,
2067, 
19.44719,
18.69178,
19.35003,
20.54552,
19.3511,
20.7337,
17.19207,
18.31131,
21.6713,
20.00137,
20.20842,
19.47544,
21.05868,
18.02235,
17.36985,
17.07691,
19.10548,
20.71062,
20.16703,
20.82486,
20.96792,
19.3428,
19.45658,
16.92005,
21.62994,
22.21399,
20.09732,
2068, 
19.41869,
18.66709,
19.36799,
20.54695,
19.36055,
20.75026,
17.18476,
18.32931,
21.64088,
19.99908,
20.18811,
19.4428,
21.06985,
18.04366,
17.40156,
17.07955,
19.11097,
20.74598,
20.15387,
20.80426,
20.97091,
19.35266,
19.42792,
16.93456,
21.64931,
22.10716,
20.09518,
2069, 
19.38998,
18.64271,
19.38898,
20.54396,
19.37155,
20.7676,
17.1739,
18.34418,
21.61229,
20.00191,
20.16525,
19.41085,
21.08069,
18.06355,
17.44106,
17.08464,
19.11581,
20.77456,
20.14013,
20.78712,
20.97392,
19.36407,
19.40005,
16.95558,
21.65156,
22.01363,
20.09226,
2070, 
19.36134,
18.6189,
19.41287,
20.53732,
19.38391,
20.78546,
17.16024,
18.35391,
21.58537,
20.00908,
20.13998,
19.37956,
21.09113,
18.08157,
17.48723,
17.09186,
19.11979,
20.79728,
20.12559,
20.77295,
20.97682,
19.3767,
19.373,
16.98539,
21.63882,
21.93598,
20.08852,
2071, 
19.33301,
18.59601,
19.43812,
20.52815,
19.3963,
20.8026,
17.14227,
18.3546,
21.55982,
20.01841,
20.11251,
19.34898,
21.10096,
18.09742,
17.53897,
17.09964,
19.12297,
20.81489,
20.11009,
20.76077,
20.97952,
19.38883,
19.34682,
17.02118,
21.61343,
21.87283,
20.08351,
2072, 
19.30529,
18.57431,
19.46515,
20.5177,
19.409,
20.81896,
17.11932,
18.34904,
21.53554,
20.02951,
20.08318,
19.31936,
21.10987,
18.11105,
17.59558,
17.1083,
19.12557,
20.82763,
20.09356,
20.75034,
20.98196,
19.40081,
19.3216,
17.06028,
21.57753,
21.82513,
20.07742,
2073, 
19.27826,
18.55391,
19.49322,
20.507,
19.42183,
20.83469,
17.09173,
18.33854,
21.51202,
20.0415,
20.0521,
19.29033,
21.11764,
18.12287,
17.65583,
17.11743,
19.12807,
20.83647,
20.07601,
20.74117,
20.98406,
19.41259,
19.29732,
17.10248,
21.53373,
21.7922,
20.0704,
2074, 
19.25213,
18.53491,
19.52083,
20.49677,
19.43427,
20.84948,
17.06137,
18.32422,
21.48905,
20.05353,
20.0195,
19.26182,
21.12358,
18.13303,
17.7182,
17.12611,
19.13053,
20.84189,
20.05744,
20.733,
20.98577,
19.42398,
19.27396,
17.14505,
21.48456,
21.77318,
20.06253,
2075, 
19.22708,
18.51731,
19.54586,
20.4877,
19.44561,
20.86311,
17.02904,
18.30663,
21.4665,
20.06399,
19.98553,
19.23379,
21.12788,
18.14143,
17.78039,
17.13415,
19.13359,
20.84438,
20.03796,
20.72558,
20.98703,
19.43491,
19.25148,
17.1873,
21.43196,
21.76738,
20.05392,
2076, 
19.20327,
18.50103,
19.56769,
20.48047,
19.45576,
20.87551,
16.99769,
18.2903,
21.44415,
20.07243,
19.95032,
19.20613,
21.13087,
18.14897,
17.8391,
17.14219,
19.13835,
20.84449,
20.0177,
20.7189,
20.98783,
19.4468,
19.22968,
17.22733,
21.37774,
21.77327,
20.04507,
2077, 
19.18106,
18.48598,
19.58343,
20.47569,
19.46336,
20.88582,
16.96864,
18.27376,
21.42204,
20.07559,
19.91409,
19.17903,
21.13259,
18.15546,
17.89002,
17.1498,
19.14518,
20.84245,
19.99672,
20.71227,
20.98822,
19.45983,
19.20834,
17.25511,
21.32388,
21.7853,
20.03568,
2078, 
19.16041,
18.47199,
19.59229,
20.47389,
19.46775,
20.89384,
16.94472,
18.25853,
21.39954,
20.07138,
19.87686,
19.15232,
21.13307,
18.16122,
17.93301,
17.15781,
19.15441,
20.83905,
19.97526,
20.70551,
20.98816,
19.47551,
19.18737,
17.26952,
21.2713,
21.79974,
20.02597,
2079, 
19.14154,
18.45889,
19.59466,
20.47543,
19.46911,
20.89942,
16.92875,
18.24897,
21.37633,
20.06026,
19.83874,
19.126,
21.13217,
18.16646,
17.96826,
17.16814,
19.16715,
20.83475,
19.95353,
20.69856,
20.98764,
19.49529,
19.1666,
17.27703,
21.22056,
21.81061,
20.01644,
2080, 
19.1247,
18.44652,
19.59096,
20.4801,
19.46755,
20.90281,
16.92259,
18.24768,
21.35193,
20.04301,
19.79987,
19.10002,
21.12982,
18.1713,
17.99633,
17.18118,
19.18306,
20.83001,
19.93178,
20.69119,
20.98668,
19.51904,
19.14602,
17.27287,
21.17277,
21.81683,
20.00735,
2081, 
19.1101,
18.43476,
19.58306,
20.48738,
19.464,
20.90447,
16.92768,
18.2562,
21.32576,
20.02136,
19.76047,
19.07448,
21.12599,
18.17614,
18.01903,
17.19734,
19.20113,
20.82532,
19.91029,
20.68358,
20.98529,
19.54721,
19.12577,
17.25264,
21.12836,
21.81753,
19.99897,
2082, 
19.09831,
18.42365,
19.57296,
20.49694,
19.46031,
20.90473,
16.94496,
18.27951,
21.29856,
19.99924,
19.72094,
19.04952,
21.12073,
18.18086,
18.03818,
17.21641,
19.21948,
20.82087,
19.88925,
20.67525,
20.98354,
19.57912,
19.10597,
17.22131,
21.08745,
21.8137,
19.99183,
2083, 
19.08962,
18.41298,
19.56637,
20.50852,
19.46008,
20.90337,
16.97457,
18.3165,
21.26972,
19.98209,
19.68125,
19.0252,
21.1142,
18.18551,
18.05397,
17.23828,
19.23935,
20.81725,
19.86933,
20.66625,
20.98131,
19.61424,
19.08667,
17.18509,
21.0493,
21.80781,
19.98632,
2084, 
19.08473,
18.40264,
19.56836,
20.52173,
19.4662,
20.90026,
17.01459,
18.36436,
21.23907,
19.97158,
19.64155,
19.00156,
21.10698,
18.19008,
18.06646,
17.26338,
19.25756,
20.81471,
19.85093,
20.65659,
20.97835,
19.65196,
19.06791,
17.14544,
21.01367,
21.79979,
19.98224,
2085, 
19.08342,
18.39261,
19.57738,
20.53618,
19.47727,
20.89552,
17.06384,
18.42009,
21.2064,
19.96659,
19.60218,
18.97895,
21.09903,
18.19479,
18.07607,
17.29156,
19.26403,
20.81343,
19.83416,
20.64626,
20.9744,
19.69159,
19.05009,
17.10288,
20.9799,
21.78873,
19.97863,
2086, 
19.08555,
18.38268,
19.59295,
20.55149,
19.49304,
20.88932,
17.11997,
18.48183,
21.17154,
19.96715,
19.56344,
18.95744,
21.09018,
18.1993,
18.0838,
17.32299,
19.26523,
20.81357,
19.81919,
20.63524,
20.96945,
19.73182,
19.0332,
17.06625,
20.94744,
21.77686,
19.9758,
2087, 
19.09122,
18.37294,
19.61546,
20.56738,
19.5137,
20.88197,
17.17987,
18.54803,
21.13495,
19.9742,
19.5263,
18.93738,
21.08052,
18.20354,
18.09018,
17.35701,
19.27153,
20.81503,
19.80609,
20.62329,
20.96378,
19.77126,
19.01736,
17.04105,
20.917,
21.76532,
19.97445,
2088, 
19.10018,
18.36319,
19.64462,
20.58358,
19.53931,
20.87359,
17.241,
18.61685,
21.09621,
19.98792,
19.49118,
18.91899,
21.07014,
18.2077,
18.09557,
17.39242,
19.2757,
20.81797,
19.79519,
20.61085,
20.95741,
19.80855,
19.00279,
17.02469,
20.88872,
21.75365,
19.97391,
2089, 
19.11226,
18.35343,
19.67912,
20.59987,
19.5689,
20.86388,
17.30132,
18.68491,
21.05542,
20.00706,
19.45858,
18.90241,
21.0591,
18.21227,
18.10018,
17.4274,
19.27543,
20.82228,
19.7866,
20.59796,
20.95041,
19.8424,
18.98965,
17.01286,
20.86292,
21.74119,
19.97357,
2090, 
19.12726,
18.34371,
19.7178,
20.61604,
19.60166,
20.85269,
17.35931,
18.75058,
21.01257,
20.03078,
19.42859,
18.88768,
21.04742,
18.21786,
18.10433,
17.46169,
19.27169,
20.82788,
19.78037,
20.58484,
20.94284,
19.87276,
18.9779,
17.01076,
20.83953,
21.72845,
19.97334,
2091, 
19.14498,
18.33408,
19.7599,
20.63186,
19.63703,
20.84016,
17.41502,
18.81508,
20.96779,
20.05837,
19.40211,
18.87496,
21.03484,
18.22362,
18.10781,
17.49432,
19.26566,
20.8346,
19.77671,
20.57171,
20.9348,
19.89979,
18.96762,
17.02216,
20.81828,
21.71699,
19.97348,
2092, 
19.16508,
18.32456,
19.80349,
20.64713,
19.67274,
20.82533,
17.46705,
18.87232,
20.92126,
20.086,
19.37881,
18.86406,
21.02151,
18.23025,
18.10939,
17.5259,
19.25822,
20.84219,
19.77529,
20.55842,
20.92644,
19.92337,
18.95862,
17.04266,
20.79898,
21.70638,
19.97324,
2093, 
19.18691,
18.31497,
19.84512,
20.66162,
19.70592,
20.80808,
17.51595,
18.92266,
20.87238,
20.10974,
19.35819,
18.85505,
21.00745,
18.2381,
18.10995,
17.55745,
19.24751,
20.85058,
19.77596,
20.54555,
20.91778,
19.94405,
18.95099,
17.06782,
20.78129,
21.69429,
19.97223,
2094, 
19.20967,
18.30533,
19.88212,
20.67508,
19.7345,
20.78864,
17.56225,
18.96738,
20.8213,
20.12863,
19.3401,
18.84791,
20.99284,
18.24723,
18.11033,
17.58928,
19.23624,
20.85955,
19.77844,
20.53325,
20.90888,
19.96218,
18.94475,
17.09724,
20.76544,
21.68113,
19.97065,
2095, 
19.23335,
18.29557,
19.91697,
20.68733,
19.76011,
20.76733,
17.60633,
19.00746,
20.76837,
20.14439,
19.32449,
18.84262,
20.978,
18.25775,
18.1108,
17.62141,
19.23251,
20.86889,
19.78269,
20.52164,
20.89978,
19.97812,
18.93988,
17.13156,
20.75125,
21.66767,
19.96924,
2096, 
19.25777,
18.28556,
19.94989,
20.69825,
19.78323,
20.74472,
17.64851,
19.04382,
20.71387,
20.15727,
19.31125,
18.83898,
20.96326,
18.26991,
18.11166,
17.65382,
19.23034,
20.87843,
19.78851,
20.51087,
20.89055,
19.99221,
18.93616,
17.16555,
20.73839,
21.65298,
19.96762,
2097, 
19.2826,
18.2757,
19.98046,
20.70791,
19.80401,
20.72142,
17.68891,
19.07734,
20.65934,
20.16738,
19.30034,
18.837,
20.94911,
18.28417,
18.11342,
17.68655,
19.22071,
20.88797,
19.79572,
20.50087,
20.88129,
20.00467,
18.93433,
17.19754,
20.72709,
21.63741,
19.96546,
2098, 
19.30785,
18.26608,
20.00862,
20.71616,
19.82261,
20.69787,
17.72803,
19.11279,
20.60494,
20.17522,
19.29185,
18.83675,
20.93586,
18.30054,
18.1169,
17.72002,
19.21003,
20.89738,
19.80413,
20.49192,
20.87209,
20.01581,
18.93387,
17.23053,
20.71696,
21.62314,
19.96375,
2099, 
19.33337,
18.25692,
20.03493,
20.72359,
19.83937,
20.67573,
17.76612,
19.14823,
20.55308,
20.18125,
19.28661,
18.83841,
20.92351,
18.31889,
18.12348,
17.75427,
19.19964,
20.90652,
19.81354,
20.48406,
20.86316,
20.02574,
18.93469,
17.26484,
20.70794,
21.61115,
19.96277,
2100, 
19.3592,
18.24864,
20.06055,
20.73167,
19.85466,
20.65595,
17.80339,
19.18346,
20.50311,
20.18588,
19.2839,
18.84205,
20.91196,
18.33908,
18.13324,
17.78917,
19.18906,
20.91525,
19.82372,
20.47733,
20.85481,
20.03462,
18.93668,
17.30095,
20.7,
21.60015,
19.96245];
