real main.em.dem.neu.CCpPlaWa[27](t) = [1971, 
21.42857,
21.42857,
21.42857,
21.42857,
21.42857,
21.42857,
21.42857,
21.42857,
21.42857,
21.42857,
21.42857,
21.42857,
21.42857,
21.42857,
21.42857,
21.42857,
21.42857,
21.42857,
21.42857,
21.42857,
21.42857,
21.42857,
21.42857,
21.42857,
21.42857,
21.42857,
0.00000,
1972, 
21.42857,
21.42857,
21.42857,
21.42857,
21.42857,
21.42857,
21.42857,
21.42857,
21.42857,
21.42857,
21.42857,
21.42857,
21.42857,
21.42857,
21.42857,
21.42857,
21.42857,
21.42857,
21.42857,
21.42857,
21.42857,
21.42857,
21.42857,
21.42857,
21.42857,
21.42857,
21.42857,
1973, 
19.47283,
19.47212,
17.94446,
17.8065,
19.44883,
19.47675,
19.43798,
19.47369,
19.4719,
21.78716,
19.45538,
19.11572,
19.4623,
18.62883,
19.45753,
19.40189,
18.99923,
19.50445,
19.4629,
19.43057,
17.04424,
19.42742,
19.46617,
19.03708,
16.91058,
19.46902,
19.37362,
1974, 
19.57566,
19.57565,
18.04456,
16.75057,
19.50672,
19.57978,
19.52865,
19.57047,
19.58998,
21.79531,
19.53165,
19.21642,
19.56458,
18.93623,
19.51558,
18.87436,
18.34974,
19.61607,
19.51136,
19.43929,
17.28199,
19.04326,
19.5603,
19.38311,
17.11101,
19.55496,
19.3741,
1975, 
19.57485,
19.58175,
18.0139,
16.86592,
19.49141,
19.5729,
19.5016,
19.52482,
19.57371,
21.83698,
19.5377,
19.21735,
19.55476,
18.93431,
19.49765,
18.86878,
18.3387,
19.63092,
19.49101,
19.44596,
17.30653,
19.02609,
19.56834,
19.38633,
17.08792,
19.54389,
19.36915,
1976, 
19.50322,
19.51068,
17.86866,
16.69108,
19.43539,
19.50352,
19.43962,
19.48202,
19.48995,
21.83995,
19.47153,
19.14416,
19.47741,
18.87678,
19.43232,
18.74785,
18.2482,
19.49267,
19.4287,
19.38773,
17.22039,
18.96931,
19.49613,
19.31781,
16.93726,
19.49884,
19.28917,
1977, 
19.33126,
19.42717,
17.72793,
16.45202,
19.37481,
19.4227,
17.95374,
19.39824,
19.40137,
21.85654,
19.39042,
19.07097,
19.39868,
18.80807,
19.35296,
18.58838,
18.10434,
19.42084,
19.36693,
19.34644,
17.22271,
18.91413,
19.41852,
19.24664,
16.73077,
19.42709,
19.18073,
1978, 
19.30789,
19.37293,
17.63606,
16.2767,
19.3411,
19.36842,
18.04004,
19.35479,
19.35397,
21.84828,
19.34397,
19.03386,
19.35555,
18.7793,
19.30429,
18.46783,
18.01291,
19.35807,
19.33307,
19.31947,
17.26137,
18.97414,
19.36759,
19.20651,
16.74539,
19.37841,
19.11832,
1979, 
19.26559,
19.34466,
17.54775,
16.19553,
19.32454,
19.3418,
17.80752,
19.33669,
19.33605,
21.85979,
19.31609,
19.02172,
19.33397,
18.77387,
19.27626,
18.39307,
17.96787,
19.33111,
19.31769,
19.30766,
17.33779,
18.91142,
19.34116,
19.19135,
16.63716,
19.35329,
19.08069,
1980, 
19.23879,
19.33149,
17.47728,
16.14712,
19.31625,
19.32811,
17.68567,
19.3249,
19.32543,
21.87071,
19.30481,
19.02127,
19.32425,
18.75995,
19.26194,
18.34746,
17.93696,
19.32701,
19.31118,
19.30394,
17.43378,
18.92336,
19.32858,
19.18385,
16.65343,
19.3401,
19.05614,
1981, 
19.22751,
19.32648,
17.4182,
16.14269,
19.31247,
19.32307,
17.59583,
19.32145,
19.32112,
21.90345,
19.30136,
19.02154,
19.32243,
18.76293,
19.24912,
18.32307,
17.92784,
19.31909,
19.30965,
19.30241,
17.51363,
18.94243,
19.32365,
19.18476,
16.68836,
19.33398,
19.04374,
1982, 
19.08805,
19.32405,
17.36147,
16.09438,
19.31184,
19.32071,
17.51789,
19.32233,
19.31899,
21.93477,
19.29302,
19.01922,
19.32005,
18.65314,
19.23343,
18.30208,
17.9269,
19.31531,
19.3081,
19.30172,
17.57755,
18.95782,
19.32137,
19.1386,
16.66955,
19.33347,
19.02661,
1983, 
19.10196,
19.32202,
17.3561,
16.08789,
19.31061,
19.31925,
17.49686,
19.32107,
19.31716,
21.92184,
19.29731,
19.01975,
19.31819,
18.60432,
19.20522,
18.28888,
17.93354,
19.31307,
19.30673,
19.3012,
17.69057,
18.95657,
19.3191,
19.12785,
16.69266,
19.33274,
19.02336,
1984, 
19.08633,
19.31874,
17.36802,
15.96691,
19.30945,
19.31676,
17.43069,
19.32024,
19.31476,
21.89481,
19.29188,
19.02026,
19.31564,
18.57406,
19.18942,
18.23064,
17.93223,
19.30932,
19.30523,
19.30073,
17.74164,
18.97276,
19.31638,
19.12516,
16.69068,
19.33008,
19.01402,
1985, 
19.06719,
19.31492,
17.34455,
15.91713,
19.30746,
19.31321,
17.37221,
19.31797,
19.31335,
21.91983,
19.28802,
19.02267,
19.31247,
18.53905,
19.17463,
18.19808,
17.93306,
19.30686,
19.30394,
19.30038,
17.76858,
19.00868,
19.3132,
19.11641,
16.69837,
19.32492,
19.00772,
1986, 
19.04263,
19.3114,
17.33381,
15.85859,
19.30549,
19.31012,
17.32134,
19.3138,
19.3115,
21.89071,
19.28592,
19.02252,
19.30959,
18.51489,
19.16856,
18.16194,
17.93597,
19.30452,
19.30285,
19.30021,
17.75166,
19.03645,
19.31005,
19.10384,
16.71984,
19.31939,
19.00228,
1987, 
19.02331,
19.30847,
17.3582,
15.79452,
19.3039,
19.30692,
17.2319,
19.31071,
19.3083,
21.8691,
19.28498,
19.02554,
19.30698,
18.49178,
19.16189,
18.12397,
17.93976,
19.30291,
19.30195,
19.30034,
17.77559,
19.07044,
19.30751,
19.09287,
16.72871,
19.31487,
19.00289,
1988, 
19.01465,
19.30623,
17.35851,
15.72897,
19.30282,
19.30465,
17.26034,
19.30873,
19.30548,
21.86104,
19.2844,
19.02789,
19.30499,
18.472,
19.15608,
18.08615,
17.9415,
19.30188,
19.30134,
19.51634,
17.83191,
19.1025,
19.30555,
19.08477,
16.71373,
19.31038,
19.00233,
1989, 
18.99113,
19.30468,
17.3634,
15.66542,
19.30213,
19.30306,
17.26394,
19.30651,
19.30416,
21.86915,
19.28419,
19.03007,
19.30386,
18.45291,
19.13457,
18.03432,
17.91883,
19.30099,
19.30093,
19.69123,
17.9201,
19.12563,
19.30415,
19.07914,
16.6808,
19.30726,
18.99956,
1990, 
18.97682,
19.3039,
17.35685,
15.60295,
19.30173,
19.30249,
17.29451,
19.30542,
19.30328,
21.86463,
19.28576,
19.03148,
19.30327,
18.43322,
19.12205,
17.99417,
17.91842,
19.30063,
19.30073,
19.82397,
18.01514,
19.15988,
19.30344,
19.07428,
16.71146,
19.30597,
18.99599,
1991, 
18.95907,
19.30331,
17.34434,
15.54522,
19.30153,
19.30182,
17.32206,
19.3047,
19.30284,
21.84134,
19.28728,
19.02278,
19.30265,
18.42552,
19.10056,
17.95043,
17.91069,
19.30038,
19.30058,
19.95352,
18.10101,
19.1893,
19.3029,
19.06647,
16.71408,
19.30494,
18.9931,
1992, 
18.94223,
19.30312,
17.33249,
15.48576,
19.30142,
19.30141,
17.34822,
19.30446,
19.30266,
21.81346,
19.28895,
19.0084,
19.30247,
18.4251,
19.12947,
17.90291,
17.90447,
19.30032,
19.30049,
20.06248,
18.16788,
19.2138,
19.30268,
19.06045,
16.72322,
19.30454,
18.9921,
1993, 
18.92851,
19.29605,
17.32083,
15.45839,
19.30151,
19.28156,
17.37021,
19.30488,
19.3028,
21.77473,
19.2989,
18.99809,
19.30151,
18.43084,
19.14365,
17.83583,
17.89327,
19.30025,
19.30048,
20.03259,
18.2405,
19.22698,
19.29722,
19.05774,
16.79326,
19.30521,
18.99212,
1994, 
18.90871,
19.28271,
17.3258,
15.43301,
19.30171,
19.24783,
17.26647,
19.30595,
19.30308,
21.75366,
19.30208,
18.98765,
19.30002,
18.43732,
19.15505,
17.76662,
17.8933,
19.30021,
19.3005,
19.99573,
18.31426,
19.22777,
19.29164,
19.05196,
16.79389,
19.30703,
18.99064,
1995, 
18.89047,
19.27069,
17.32185,
15.41138,
19.30204,
19.21938,
17.14865,
19.3077,
19.30396,
21.74231,
19.30568,
18.98211,
19.29988,
18.44703,
19.16708,
17.69414,
17.89279,
19.30016,
19.30056,
19.95602,
18.38897,
19.22477,
19.28555,
19.04781,
16.82107,
19.30891,
18.99159,
1996, 
18.87307,
19.25771,
17.36468,
15.39634,
19.30243,
19.18994,
16.99333,
19.30948,
19.30449,
21.73269,
19.30859,
18.97944,
19.29897,
18.45081,
19.18113,
17.60892,
17.89612,
19.30008,
19.30064,
19.9269,
18.45543,
19.21761,
19.27866,
19.04378,
16.88216,
19.31104,
18.99497,
1997, 
18.85665,
19.24424,
17.36805,
15.38675,
19.30296,
19.16358,
16.82854,
19.31152,
19.305,
21.73932,
19.31132,
18.97849,
19.298,
18.45827,
19.19885,
17.51549,
17.89805,
19.29999,
19.30074,
19.90631,
18.512,
19.20602,
19.27126,
19.0414,
16.9359,
19.31301,
18.99203,
1998, 
18.86081,
19.23026,
17.36988,
15.38114,
19.30345,
19.14093,
16.67818,
19.31361,
19.30545,
21.7415,
19.31302,
18.97827,
19.29686,
18.47231,
19.21518,
17.41204,
17.9037,
19.29996,
19.30085,
19.82591,
18.54527,
19.18876,
19.26346,
19.04754,
16.98531,
19.31471,
18.98765,
1999, 
18.86189,
19.21587,
17.37911,
15.37755,
19.30398,
19.11774,
16.54424,
19.31539,
19.30601,
21.73252,
19.3121,
18.97535,
19.29605,
18.48565,
19.22798,
17.31709,
17.90836,
19.29988,
19.30099,
19.76727,
18.51953,
19.15974,
19.25524,
19.05558,
17.0421,
19.31575,
18.98143,
2000, 
18.8588,
19.19956,
17.39175,
15.37259,
19.30443,
19.08855,
16.42381,
19.31718,
19.30621,
21.74029,
19.30759,
18.96386,
19.29561,
18.48865,
19.2366,
17.2107,
17.91648,
19.29977,
19.30105,
19.73632,
18.55008,
19.13017,
19.24685,
19.05834,
17.04591,
19.31656,
18.97264,
2001, 
18.85439,
19.18184,
17.39617,
15.36943,
19.30466,
19.06603,
16.32716,
19.31797,
19.3061,
21.76173,
19.3046,
18.95985,
19.29406,
18.49544,
19.23855,
17.11099,
17.92219,
19.29972,
19.30109,
19.72674,
18.58505,
19.10107,
19.23854,
19.0626,
17.10146,
19.31677,
18.96174,
2002, 
18.85074,
19.1639,
17.41919,
15.36754,
19.30486,
19.05053,
16.25191,
19.31786,
19.30564,
21.77302,
19.30105,
18.95359,
19.29383,
18.49652,
19.22959,
17.02335,
17.93309,
19.29964,
19.30112,
19.72093,
18.59186,
19.05626,
19.22978,
19.06821,
17.11804,
19.31637,
18.95384,
2003, 
18.84867,
19.1445,
17.44223,
15.36588,
19.30489,
19.04513,
16.19236,
19.31788,
19.30554,
21.79353,
19.28888,
18.92073,
19.29147,
18.4923,
19.21581,
17.04476,
17.9454,
19.29958,
19.30112,
19.76031,
18.61379,
18.98309,
19.22544,
19.07513,
17.18765,
19.31454,
18.9507,
2004, 
18.84706,
19.12441,
17.46806,
15.3657,
19.3052,
19.04999,
16.15519,
19.31704,
19.30544,
21.81211,
19.28322,
18.90708,
19.28965,
18.47903,
19.19459,
17.09982,
17.95787,
19.29948,
19.30118,
19.8257,
18.63492,
18.951,
19.22241,
19.08113,
17.24988,
19.31442,
18.95078,
2005, 
18.83606,
19.09973,
17.49232,
15.36371,
19.30453,
19.06084,
16.12975,
19.3132,
19.30427,
21.84709,
19.27936,
18.90664,
19.28669,
18.43699,
19.16181,
17.16847,
17.97053,
19.29935,
19.30108,
19.92134,
18.6673,
18.93248,
19.21863,
19.07909,
17.33838,
19.31103,
18.95602,
2006, 
18.82613,
19.07257,
17.52187,
15.36137,
19.30421,
19.07505,
16.11012,
19.09294,
19.30347,
21.88387,
19.27511,
18.90173,
19.28361,
18.40613,
19.12436,
17.24694,
17.98774,
19.29924,
19.30103,
20.03005,
18.69326,
18.91513,
19.21625,
19.0776,
17.43218,
19.30839,
18.96561,
2007, 
18.81499,
19.04371,
17.55344,
15.35916,
19.30381,
19.0839,
16.13295,
18.87099,
19.30258,
21.92669,
19.27253,
18.90669,
19.28068,
18.35152,
19.08317,
17.34584,
18.00986,
19.29915,
19.30096,
20.18866,
18.72315,
18.91671,
19.21465,
19.0733,
17.51335,
19.30617,
18.9884,
2008, 
18.80401,
19.01616,
17.58905,
15.35719,
19.30333,
19.0723,
16.15655,
18.70135,
19.30186,
21.94778,
19.26958,
18.91167,
19.27867,
18.28682,
19.03142,
17.44502,
18.03655,
19.29907,
19.30089,
20.36858,
18.74868,
18.92917,
19.21351,
19.06605,
17.58176,
19.30426,
19.02328,
2009, 
18.7979,
18.99057,
17.62173,
15.3563,
19.30288,
19.0508,
16.28536,
18.54162,
19.30138,
21.95187,
19.26503,
18.92274,
19.27656,
18.23601,
18.99182,
17.5427,
18.06678,
19.29903,
19.30083,
20.51012,
18.768,
18.95429,
19.21222,
19.0572,
17.61102,
19.30313,
19.0569,
2010, 
18.79308,
18.96213,
17.65706,
15.3673,
19.30253,
19.06036,
16.29907,
18.37154,
19.30105,
21.91518,
19.26179,
18.93173,
19.27419,
18.25395,
18.967,
17.63979,
18.10014,
19.29905,
19.30506,
20.65722,
18.77595,
18.98597,
19.21054,
19.04703,
17.66114,
19.30251,
19.10414,
2011, 
18.78785,
18.92664,
17.69653,
15.37285,
19.3021,
19.06127,
16.32126,
18.18585,
19.30077,
21.90236,
19.25746,
18.94451,
19.2676,
18.20497,
18.92211,
17.72606,
18.13504,
19.29908,
19.31003,
20.82383,
18.80906,
19.01608,
19.21009,
19.03315,
17.69176,
19.30185,
19.15476,
2012, 
18.78316,
18.88628,
17.73725,
15.4478,
19.30175,
19.05458,
16.3158,
18.00846,
19.30059,
21.88682,
19.25248,
18.96,
19.25815,
18.15404,
18.87465,
17.80604,
18.16902,
19.29914,
19.31552,
20.98906,
18.82611,
19.04565,
19.20919,
19.0139,
17.71834,
19.3014,
19.21008,
2013, 
18.78022,
18.84523,
17.78248,
15.49443,
19.30147,
19.06097,
16.33521,
17.90792,
19.3,
21.84071,
19.25534,
18.99168,
19.25396,
18.1267,
18.83709,
17.82121,
18.20888,
19.29922,
19.32184,
21.15666,
18.8497,
19.12149,
19.20915,
18.99224,
17.75643,
19.30103,
19.26696,
2014, 
18.77833,
18.7967,
17.83047,
15.51457,
19.30121,
19.05902,
16.31835,
17.75503,
19.3,
21.79905,
19.25265,
19.01345,
19.24394,
18.0991,
18.78771,
17.81557,
18.24773,
19.29926,
19.32887,
21.31934,
18.87385,
19.1438,
19.20934,
18.97046,
17.79906,
19.30077,
19.32355,
2015, 
18.77795,
18.74007,
17.88218,
15.54921,
19.301,
19.05567,
16.29545,
17.61251,
19.3,
21.75583,
19.24757,
19.02917,
19.23237,
18.08922,
18.75183,
17.79254,
18.28677,
19.29934,
19.33632,
21.47588,
18.89342,
19.14108,
19.20999,
18.94512,
17.84353,
19.30058,
19.37796,
2016, 
18.77821,
18.67903,
17.93634,
15.59559,
19.30085,
19.04356,
16.27431,
17.67615,
19.3,
21.7057,
19.2452,
19.05064,
19.2193,
18.09666,
18.73629,
17.74608,
18.32311,
19.29944,
19.34423,
21.62733,
18.91368,
19.14336,
19.2144,
18.91626,
17.88914,
19.30046,
19.43339,
2017, 
18.77709,
18.61287,
17.99185,
15.6321,
19.30071,
19.04059,
16.22305,
17.70027,
19.3,
21.64995,
19.24573,
19.06771,
19.20482,
18.07479,
18.72253,
17.68763,
18.35618,
19.29953,
19.35295,
21.77182,
18.93174,
19.13371,
19.22344,
18.88396,
17.94096,
19.30036,
19.48415,
2018, 
18.7746,
18.54071,
18.05059,
15.65083,
19.30057,
19.044,
16.17311,
17.7116,
19.3,
21.62819,
19.25066,
19.08371,
19.18797,
18.04332,
18.67622,
17.62193,
18.38536,
19.29957,
19.36237,
21.92337,
18.95277,
19.12003,
19.23787,
18.84653,
17.99281,
19.30026,
19.53897,
2019, 
18.77186,
18.46985,
18.1116,
15.66654,
19.30045,
19.06728,
16.02796,
17.78092,
19.3,
21.5875,
19.2619,
19.09585,
19.17456,
18.00853,
18.63184,
17.55211,
18.41641,
19.2996,
19.3716,
22.07615,
18.96864,
19.12356,
19.25854,
18.80447,
18.04461,
19.30019,
19.59582,
2020, 
18.77001,
18.40081,
18.17348,
15.6699,
19.30035,
19.05192,
15.97403,
17.83954,
19.3,
21.5416,
19.27439,
19.09425,
19.16083,
17.96769,
18.58411,
17.48403,
18.44623,
19.29956,
19.37801,
22.22099,
18.97965,
19.12516,
19.28226,
18.75564,
18.09038,
19.30014,
19.65058,
2021, 
18.77039,
18.34345,
18.208,
15.67552,
19.30029,
19.03326,
15.90968,
17.82282,
19.3,
21.43476,
19.28356,
19.08468,
19.1505,
17.96298,
18.58579,
17.45171,
18.47268,
19.29952,
19.3838,
22.32477,
18.97474,
19.1188,
19.30569,
18.7075,
18.05783,
19.30012,
19.70738,
2022, 
18.76948,
18.27705,
18.27036,
15.63076,
19.30021,
19.02119,
15.84007,
17.86628,
19.3,
21.36276,
19.30291,
19.0782,
19.14043,
17.92919,
18.55053,
17.38902,
18.5037,
19.29947,
19.38935,
22.45518,
18.98188,
19.13209,
19.33459,
18.64931,
18.07853,
19.30009,
19.75996,
2023, 
18.76989,
18.22013,
18.33035,
15.59729,
19.30016,
18.99613,
15.78417,
17.86855,
19.30384,
21.29492,
19.32011,
19.0668,
19.1536,
17.88811,
18.51623,
17.34161,
18.52974,
19.2994,
19.39685,
22.56061,
18.9886,
19.13691,
19.36489,
18.58519,
18.09439,
19.29819,
19.80651,
2024, 
18.77014,
18.17018,
18.39207,
15.57992,
19.28878,
18.92707,
15.73303,
17.91441,
19.31112,
21.20995,
19.33727,
19.02486,
19.16979,
17.84622,
18.45408,
17.23658,
18.5579,
19.15851,
19.40705,
22.65925,
18.98649,
19.14869,
19.39652,
18.4975,
18.06793,
19.27625,
19.84079,
2025, 
18.7705,
18.1259,
18.45351,
15.55833,
19.28673,
18.85204,
15.68682,
17.96571,
19.32226,
21.11429,
19.35611,
18.98416,
19.19117,
17.80117,
18.40608,
17.1712,
18.58581,
19.08232,
19.41945,
22.74643,
18.98905,
19.17228,
19.42916,
18.40588,
18.05056,
19.26017,
19.87424,
2026, 
18.77159,
18.08452,
18.51559,
15.57987,
19.28466,
18.80265,
15.64447,
18.02413,
19.3798,
21.01851,
19.37608,
18.9597,
19.2474,
17.75164,
18.34887,
17.15022,
18.61174,
19.05678,
19.44116,
22.81726,
19.02464,
19.19547,
19.46305,
18.3169,
18.04859,
19.2542,
19.90348,
2027, 
18.77319,
18.04993,
18.57693,
15.63449,
19.28228,
18.74663,
15.60579,
18.10583,
19.43942,
20.92507,
19.39576,
18.93379,
19.31177,
17.70146,
18.28393,
17.1177,
18.63581,
19.03164,
19.46286,
22.88037,
19.07591,
19.21938,
19.49763,
18.22522,
18.05359,
19.24654,
19.92833,
2028, 
18.77482,
18.02145,
18.6359,
15.74293,
19.28031,
18.69395,
15.56964,
18.18281,
19.51411,
20.83003,
19.41611,
18.90878,
19.38997,
17.64994,
18.22857,
17.08097,
18.65898,
19.01092,
19.4853,
22.93185,
19.15954,
19.24369,
19.53248,
18.12442,
18.06209,
19.23888,
19.95008,
2029, 
18.7764,
17.99605,
18.69141,
15.86763,
19.27897,
18.60917,
15.53576,
18.20773,
19.60244,
20.74921,
19.43627,
18.87026,
19.48108,
17.59739,
18.17004,
17.04915,
18.67524,
18.98605,
19.50802,
22.97307,
19.27363,
19.25345,
19.56808,
17.99883,
18.06293,
19.21741,
19.96607,
2030, 
18.77755,
17.97788,
18.74278,
16.05116,
19.278,
18.53287,
15.50445,
18.25826,
19.71041,
20.66986,
19.45703,
18.84386,
19.59288,
17.54524,
18.11242,
17.01564,
18.68924,
18.91206,
19.53362,
23.00649,
19.41966,
19.26325,
19.60356,
17.8654,
18.05613,
19.19812,
19.97819,
2031, 
18.78077,
17.96635,
18.79016,
16.29757,
19.2776,
18.48148,
15.47609,
18.29597,
19.88292,
20.59245,
19.47728,
18.83228,
19.72385,
17.49577,
18.05629,
16.99874,
18.70324,
18.86258,
19.56572,
23.0298,
19.59825,
19.271,
19.63655,
17.73483,
18.06182,
19.19274,
19.99291,
2032, 
18.78658,
17.96284,
18.83276,
16.57313,
19.27735,
18.4349,
15.45104,
18.32261,
20.07307,
20.51682,
19.49492,
18.82535,
19.86652,
17.45115,
18.00475,
16.9867,
18.71716,
18.8414,
19.60236,
23.03646,
19.79128,
19.2762,
19.66518,
17.59507,
18.06693,
19.1887,
20.00452,
2033, 
18.79517,
17.96102,
18.8706,
16.86982,
19.27716,
18.39401,
15.42917,
18.34096,
20.27447,
20.44326,
19.50924,
18.82433,
19.99816,
17.41035,
17.95417,
16.97957,
18.73057,
18.82306,
19.64037,
23.02972,
19.98871,
19.27953,
19.68897,
17.45206,
18.07118,
19.19056,
20.01245,
2034, 
18.80556,
17.96637,
18.90322,
17.183,
19.28779,
18.41187,
15.41068,
18.35521,
20.4863,
20.37164,
19.52311,
18.85755,
20.13888,
17.3733,
17.93135,
17.03684,
18.742,
18.91499,
19.68192,
23.00873,
20.20052,
19.28202,
19.70831,
17.32596,
18.12103,
19.22089,
20.03139,
2035, 
18.81661,
17.97636,
18.93186,
17.50386,
19.28942,
18.43442,
15.39563,
18.36098,
20.70526,
20.30317,
19.5385,
18.89777,
20.28251,
17.33937,
17.88702,
17.07171,
18.75177,
18.95937,
19.72782,
22.97287,
20.4101,
19.28378,
19.72875,
17.19449,
18.16061,
19.25324,
20.0429,
2036, 
18.82891,
17.99384,
18.95696,
17.78073,
19.29118,
18.44258,
15.38402,
18.35936,
20.88957,
20.23769,
19.55787,
18.93834,
20.40248,
17.30874,
17.84495,
17.09195,
18.76021,
18.9725,
19.77302,
22.92296,
20.59071,
19.28502,
19.754,
17.05178,
18.19118,
19.28091,
20.04576,
2037, 
18.8423,
18.01728,
18.97802,
18.03833,
19.29333,
18.46415,
15.37562,
18.35135,
21.07333,
20.1758,
19.58467,
18.99392,
20.51787,
17.28271,
17.80759,
17.11969,
18.76729,
18.9891,
19.82257,
22.85706,
20.75567,
19.28612,
19.78576,
16.91342,
18.23077,
19.31693,
20.04618,
2038, 
18.85712,
18.04746,
18.99517,
18.26277,
19.29515,
18.48974,
15.37003,
18.34355,
21.2427,
20.11757,
19.61786,
19.06198,
20.62438,
17.25957,
17.77054,
17.14807,
18.7749,
19.00378,
19.877,
22.77713,
20.89036,
19.28718,
19.82349,
16.78098,
18.27321,
19.35875,
20.04327,
2039, 
18.8739,
18.08584,
19.0099,
18.47,
19.29641,
18.53444,
15.36698,
18.33716,
21.3997,
20.06352,
19.65662,
19.15307,
20.71778,
17.24087,
17.73384,
17.17592,
18.78159,
19.01967,
19.93275,
22.68366,
20.99736,
19.28833,
19.86746,
16.67081,
18.32294,
19.40778,
20.03845,
2040, 
18.89322,
18.13267,
19.02297,
18.63214,
19.29734,
18.58881,
15.36656,
18.32462,
21.53691,
20.01378,
19.70263,
19.24677,
20.7951,
17.22444,
17.69753,
17.20887,
18.78825,
19.07235,
19.9867,
22.57741,
21.07646,
19.2892,
19.91563,
16.56855,
18.37985,
19.47542,
20.03437,
2041, 
18.91858,
18.18839,
19.03369,
18.74198,
19.29782,
18.62719,
15.36959,
18.31088,
21.61855,
19.96785,
19.7543,
19.33453,
20.85678,
17.2106,
17.66195,
17.22922,
18.79819,
19.10441,
20.03471,
22.45942,
21.12619,
19.28988,
19.96357,
16.46642,
18.42264,
19.56624,
20.02286,
2042, 
18.95119,
18.25005,
19.04258,
18.82781,
19.29817,
18.66677,
15.37502,
18.2949,
21.67936,
19.9245,
19.80895,
19.42373,
20.9084,
17.19964,
17.63041,
17.24881,
18.8118,
19.11162,
20.07677,
22.3307,
21.16089,
19.29043,
20.00744,
16.37601,
18.46104,
19.69276,
20.00607,
2043, 
18.99123,
18.31577,
19.04965,
18.89474,
19.29848,
18.70955,
15.38204,
18.2763,
21.72009,
19.8831,
19.86512,
19.51171,
20.9523,
17.1891,
17.60067,
17.26642,
18.8288,
19.11366,
20.11296,
22.19255,
21.18293,
19.29087,
20.0449,
16.29779,
18.49694,
19.84686,
19.98603,
2044, 
19.03702,
18.38184,
19.05548,
18.94406,
19.29877,
18.74965,
15.38826,
18.2548,
21.74301,
19.84412,
19.92048,
19.5941,
20.98949,
17.1774,
17.57291,
17.2819,
18.84772,
19.10412,
20.14272,
22.04657,
21.19506,
19.29127,
20.07291,
16.22845,
18.52892,
20.04221,
19.96157,
2045, 
19.08642,
18.44329,
19.06088,
18.97969,
19.29901,
18.78836,
15.3942,
18.2307,
21.74981,
19.8084,
19.97329,
19.6684,
21.02086,
17.16556,
17.54684,
17.29382,
18.86834,
19.08233,
20.16432,
21.89426,
21.1995,
19.29153,
20.09084,
16.16641,
18.55419,
20.21387,
19.93214,
2046, 
19.14076,
18.50154,
19.06596,
19.00462,
19.29923,
18.8301,
15.40113,
18.20477,
21.75015,
19.77492,
20.01952,
19.728,
21.04759,
17.15362,
17.52175,
17.30186,
18.89039,
19.05352,
20.17745,
21.73828,
21.19898,
19.29167,
20.09591,
16.11325,
18.57178,
20.37844,
19.89917,
2047, 
19.195,
18.5526,
19.07117,
19.02176,
19.2994,
18.87372,
15.40722,
18.17598,
21.74601,
19.74331,
20.05695,
19.77169,
21.07071,
17.14176,
17.49948,
17.30638,
18.91338,
19.02049,
20.18168,
21.58213,
21.19518,
19.29167,
20.08402,
16.06701,
18.58287,
20.53757,
19.86333,
2048, 
19.24821,
18.59579,
19.0768,
19.03103,
19.29953,
18.92185,
15.41232,
18.14453,
21.73981,
19.71281,
20.08568,
19.79898,
21.0913,
17.12909,
17.4781,
17.30686,
18.937,
18.98099,
20.17949,
21.42615,
21.18885,
19.29156,
20.0564,
16.02637,
18.58957,
20.69549,
19.82462,
2049, 
19.29894,
18.62815,
19.08284,
19.03462,
19.29963,
18.97141,
15.41737,
18.11061,
21.73213,
19.68333,
20.10538,
19.80821,
21.10979,
17.11466,
17.45752,
17.30346,
18.96098,
18.93367,
20.17156,
21.27055,
21.18069,
19.29132,
20.01478,
15.98992,
18.595,
20.86517,
19.78277,
2050, 
19.34429,
18.64864,
19.08929,
19.03322,
19.29969,
19.02591,
15.42908,
18.0746,
21.72381,
19.65496,
20.11426,
19.80431,
21.12666,
17.10104,
17.43655,
17.2963,
18.98524,
18.90104,
20.15713,
21.11489,
21.17127,
19.29098,
19.96166,
15.95583,
18.60243,
21.02393,
19.74071,
2051, 
19.38126,
18.65551,
19.09625,
19.02739,
19.29972,
19.08584,
15.44919,
18.03684,
21.71484,
19.6279,
20.11122,
19.78546,
21.14232,
17.0887,
17.41505,
17.28542,
19.00962,
18.88309,
20.13583,
20.95905,
21.16114,
19.29022,
19.89855,
15.92254,
18.61395,
21.16234,
19.69841,
2052, 
19.4071,
18.64993,
19.10364,
19.01781,
19.29974,
19.15146,
15.48239,
17.99747,
21.70668,
19.60188,
20.09645,
19.75346,
21.1569,
17.07767,
17.39414,
17.2714,
19.03402,
18.87662,
20.10772,
20.80364,
21.15087,
19.28931,
19.8278,
15.89081,
18.63136,
21.27837,
19.6562,
2053, 
19.4217,
18.63471,
19.11167,
19.00588,
19.29975,
19.2284,
15.53843,
17.95764,
21.70003,
19.57669,
20.06973,
19.70913,
21.1708,
17.06887,
17.37286,
17.25444,
19.05666,
18.89388,
20.07357,
20.64713,
21.14082,
19.28817,
19.75084,
15.86074,
18.65698,
21.38084,
19.61627,
2054, 
19.41971,
18.60672,
19.11984,
18.99219,
19.29975,
19.31363,
15.60381,
17.91739,
21.69392,
19.55191,
20.03106,
19.65399,
21.1846,
17.06217,
17.35115,
17.23473,
19.07907,
18.93486,
20.03364,
20.48967,
21.13122,
19.28674,
19.66813,
15.83414,
18.69174,
21.44837,
19.57828,
2055, 
19.40063,
18.56787,
19.12803,
18.97768,
19.29975,
19.3967,
15.66288,
17.87664,
21.68846,
19.52731,
19.98156,
19.58782,
21.19846,
17.05614,
17.32877,
17.21264,
19.10032,
18.99809,
19.99069,
20.33092,
21.12242,
19.285,
19.58098,
15.80788,
18.73423,
21.52994,
19.54216,
2056, 
19.35898,
18.51681,
19.13597,
18.96306,
19.29974,
19.47009,
15.7173,
17.83542,
21.67649,
19.50353,
19.92265,
19.51136,
21.21161,
17.05025,
17.30593,
17.18825,
19.11757,
19.08374,
19.94429,
20.17162,
21.11379,
19.28284,
19.49182,
15.78031,
18.78465,
21.61129,
19.50741,
2057, 
19.29915,
18.45693,
19.14369,
18.94879,
19.29977,
19.54717,
15.76449,
17.79514,
21.66197,
19.48232,
19.85732,
19.42743,
21.22341,
17.04544,
17.28272,
17.16146,
19.13055,
19.19731,
19.89559,
20.0137,
21.10582,
19.28012,
19.40434,
15.75428,
18.84992,
21.69205,
19.47683,
2058, 
19.22028,
18.38771,
19.151,
18.93502,
19.29984,
19.62185,
15.8028,
17.75548,
21.64434,
19.46433,
19.78762,
19.33773,
21.23213,
17.04289,
17.25922,
17.13292,
19.13973,
19.33919,
19.84293,
19.85744,
21.09716,
19.27687,
19.31962,
15.72958,
18.93107,
21.76655,
19.45055,
2059, 
19.12416,
18.30982,
19.15777,
18.92181,
19.29998,
19.69139,
15.83344,
17.71689,
21.62276,
19.44891,
19.71496,
19.24337,
21.23623,
17.0424,
17.23544,
17.10279,
19.14666,
19.51144,
19.78485,
19.70328,
21.08882,
19.27304,
19.23792,
15.70587,
19.02968,
21.83504,
19.42939,
2060, 
19.01355,
18.22667,
19.16391,
18.90919,
19.3002,
19.75276,
15.85138,
17.67917,
21.59748,
19.43429,
19.63787,
19.14546,
21.23761,
17.04429,
17.21158,
17.07256,
19.15145,
19.69167,
19.72195,
19.55108,
21.08112,
19.26862,
19.15576,
15.68196,
19.1465,
21.88849,
19.41008,
2061, 
18.88743,
18.13813,
19.16929,
18.89706,
19.3005,
19.8052,
15.85392,
17.64158,
21.56806,
19.42026,
19.55752,
19.04568,
21.23679,
17.04708,
17.18833,
17.04258,
19.15432,
19.87537,
19.6538,
19.40199,
21.0739,
19.26396,
19.07114,
15.6583,
19.27591,
21.91045,
19.39184,
2062, 
18.75158,
18.04754,
19.17391,
18.88561,
19.30089,
19.8447,
15.83987,
17.60526,
21.53488,
19.40664,
19.47477,
18.9454,
21.23384,
17.05254,
17.16545,
17.01324,
19.15566,
20.06207,
19.58107,
19.25675,
21.06745,
19.259,
18.98307,
15.63552,
19.41591,
21.88772,
19.37473,
2063, 
18.60648,
17.95484,
19.17768,
18.87486,
19.30132,
19.86438,
15.80102,
17.56856,
21.49534,
19.39279,
19.39044,
18.84617,
21.22899,
17.0596,
17.14332,
16.98498,
19.15581,
20.239,
19.50389,
19.1155,
21.06147,
19.25395,
18.8889,
15.61285,
19.55948,
21.79437,
19.3558,
2064, 
18.46009,
17.8663,
19.18098,
18.86469,
19.30179,
19.87308,
15.75125,
17.53186,
21.44614,
19.37864,
19.30519,
18.74934,
21.22251,
17.0692,
17.12256,
16.95815,
19.15497,
20.40778,
19.42607,
18.97781,
21.05624,
19.24897,
18.78303,
15.59149,
19.70335,
21.64243,
19.33597,
2065, 
18.31799,
17.7842,
19.18394,
18.85487,
19.30229,
19.87613,
15.70423,
17.49557,
21.38509,
19.36407,
19.22016,
18.65593,
21.21435,
17.08126,
17.1036,
16.93297,
19.15322,
20.56704,
19.34954,
18.8441,
21.05184,
19.24417,
18.66471,
15.57175,
19.84583,
21.45312,
19.31574,
2066, 
18.18365,
17.70813,
19.18663,
18.8451,
19.30274,
19.86821,
15.65753,
17.45908,
21.31404,
19.34926,
19.13636,
18.5668,
21.20444,
17.09256,
17.0876,
16.90961,
19.15057,
20.71058,
19.27578,
18.71641,
21.04794,
19.2397,
18.54195,
15.55349,
19.98109,
21.23628,
19.29435,
2067, 
18.06412,
17.64317,
19.1892,
18.83526,
19.3032,
19.8553,
15.61617,
17.42361,
21.24255,
19.33414,
19.05453,
18.48281,
21.19296,
17.1073,
17.07784,
16.88797,
19.14702,
20.83179,
19.206,
18.59618,
21.04473,
19.23578,
18.41961,
15.53782,
20.10494,
21.00269,
19.27222,
2068, 
17.96188,
17.58951,
19.19179,
18.8249,
19.30363,
19.8431,
15.58149,
17.38831,
21.17119,
19.31874,
18.97462,
18.40433,
21.18111,
17.12243,
17.07952,
16.8679,
19.14268,
20.93162,
19.13932,
18.48516,
21.04191,
19.23244,
18.29794,
15.5261,
20.21442,
20.75019,
19.24981,
2069, 
17.87708,
17.54706,
19.19453,
18.81376,
19.30395,
19.83564,
15.55146,
17.35283,
21.10225,
19.30295,
18.89675,
18.33174,
21.16999,
17.13635,
17.09684,
16.84923,
19.13761,
21.01017,
19.07359,
18.38377,
21.03925,
19.22977,
18.18207,
15.52615,
20.30605,
20.49528,
19.22739,
2070, 
17.80892,
17.51453,
19.1974,
18.8016,
19.30405,
19.83204,
15.52511,
17.31712,
21.03259,
19.28625,
18.82063,
18.26519,
21.15837,
17.14697,
17.12977,
16.83173,
19.13188,
21.06946,
19.00633,
18.2917,
21.03653,
19.22769,
18.07215,
15.53571,
20.37798,
20.2411,
19.20449,
2071, 
17.7535,
17.49013,
19.20008,
18.7882,
19.3037,
19.82262,
15.50187,
17.28139,
20.95281,
19.26823,
18.74647,
18.20461,
21.14546,
17.1495,
17.16709,
16.81506,
19.12548,
21.1128,
18.93678,
18.20867,
21.03359,
19.22594,
17.96841,
15.54617,
20.43092,
19.99509,
19.18025,
2072, 
17.7112,
17.47357,
19.20265,
18.77367,
19.3027,
19.81449,
15.48081,
17.24678,
20.86721,
19.24893,
18.67466,
18.15059,
21.13087,
17.14806,
17.21477,
16.79963,
19.11838,
21.14252,
18.86468,
18.13514,
21.03039,
19.22455,
17.87584,
15.56519,
20.46595,
19.77764,
19.15585,
2073, 
17.68041,
17.46311,
19.20497,
18.75802,
19.30053,
19.80372,
15.46176,
17.21305,
20.77637,
19.22794,
18.60487,
18.10239,
21.11397,
17.1425,
17.26671,
16.78485,
19.11064,
21.16144,
18.78953,
18.07016,
21.02667,
19.22339,
17.79421,
15.58679,
20.4861,
19.60682,
19.13165,
2074, 
17.65879,
17.45584,
19.20694,
18.74137,
19.29626,
19.78454,
15.44465,
17.18044,
20.68246,
19.20507,
18.53712,
18.05979,
21.09406,
17.13333,
17.31927,
16.77054,
19.10231,
21.17195,
18.71114,
18.01366,
21.02205,
19.2224,
17.72721,
15.60425,
20.49348,
19.47649,
19.10763,
2075, 
17.64405,
17.44738,
19.20851,
18.72351,
19.2888,
19.75459,
15.42941,
17.14899,
20.58676,
19.18008,
18.47153,
18.02213,
21.07049,
17.12187,
17.36613,
16.75649,
19.09335,
21.17589,
18.63017,
17.96606,
21.01607,
19.22155,
17.67157,
15.61763,
20.48986,
19.3729,
19.08348,
2076, 
17.63892,
17.43641,
19.20973,
18.70394,
19.27741,
19.71919,
15.41665,
17.1192,
20.48817,
19.15254,
18.40812,
17.98915,
21.04255,
17.11054,
17.40197,
16.74279,
19.08377,
21.17515,
18.54828,
17.92693,
21.00792,
19.22098,
17.61741,
15.62742,
20.47869,
19.29221,
19.05925,
2077, 
17.63758,
17.41392,
19.21049,
18.68099,
19.26158,
19.67103,
15.40573,
17.09103,
20.38237,
19.12245,
18.34729,
17.96029,
21.00869,
17.10019,
17.42183,
16.72943,
19.0735,
21.17053,
18.4655,
17.89499,
20.99739,
19.22084,
17.56118,
15.63161,
20.45905,
19.22108,
19.03307,
2078, 
17.64086,
17.37909,
19.21078,
18.65166,
19.24103,
19.61139,
15.3975,
17.06407,
20.27166,
19.0896,
18.28915,
17.9344,
20.96976,
17.0965,
17.42339,
16.71629,
19.0624,
21.16282,
18.38384,
17.87082,
20.98509,
19.22176,
17.50484,
15.63036,
20.43212,
19.16624,
19.00565,
2079, 
17.64917,
17.33326,
19.21059,
18.61398,
19.21569,
19.54147,
15.39322,
17.03817,
20.15669,
19.05359,
18.23337,
17.91082,
20.92707,
17.10763,
17.40427,
16.70392,
19.0504,
21.15295,
18.3041,
17.85797,
20.9726,
19.22516,
17.44416,
15.6197,
20.39908,
19.13295,
18.97802,
2080, 
17.66116,
17.27627,
19.21004,
18.56592,
19.18534,
19.46216,
15.3943,
17.01344,
20.04051,
19.01446,
18.17921,
17.88879,
20.88073,
17.13714,
17.3659,
16.69323,
19.03699,
21.14176,
18.22623,
17.85481,
20.9607,
19.23344,
17.37918,
15.59822,
20.36075,
19.08057,
18.94947,
2081, 
17.6789,
17.20982,
19.2094,
18.50496,
19.15025,
19.38038,
15.40137,
16.99,
19.93053,
18.9726,
18.12653,
17.8678,
20.83036,
17.18597,
17.31971,
16.68508,
19.01737,
21.12964,
18.15147,
17.86015,
20.94911,
19.24743,
17.31305,
15.57408,
20.31868,
19.00212,
18.92051,
2082, 
17.70218,
17.13921,
19.20865,
18.44321,
19.11068,
19.29545,
15.42379,
16.96813,
19.82595,
18.92821,
18.07669,
17.84766,
20.7761,
17.25678,
17.26385,
16.68791,
18.97109,
21.11712,
18.08034,
17.87468,
20.93877,
19.28128,
17.24356,
15.54181,
20.27345,
18.91543,
18.89146,
2083, 
17.73067,
17.07112,
19.2079,
18.38385,
19.06688,
19.21046,
15.47775,
16.94807,
19.72648,
18.88132,
18.02943,
17.82759,
20.71633,
17.34245,
17.21262,
16.71782,
18.91776,
21.10456,
18.0132,
17.8944,
20.92892,
19.34101,
17.17418,
15.50737,
20.22541,
18.82571,
18.8648,
2084, 
17.76374,
17.02307,
19.20726,
18.3307,
19.01921,
19.13342,
15.58873,
16.93881,
19.63343,
18.83233,
17.98491,
17.80734,
20.64982,
17.43905,
17.20053,
16.78159,
18.85221,
21.09249,
17.95038,
17.91717,
20.91886,
19.41934,
17.11283,
15.47637,
20.17545,
18.73715,
18.8431,
2085, 
17.80019,
16.99307,
19.20695,
18.28236,
18.9685,
19.08702,
15.74137,
16.97723,
19.55305,
18.78539,
17.94379,
17.78695,
20.57589,
17.54326,
17.2245,
16.86157,
18.77777,
21.08118,
17.893,
17.94164,
20.90806,
19.50766,
17.07527,
15.44936,
20.12353,
18.65692,
18.82984,
2086, 
17.83677,
16.97885,
19.21319,
18.23947,
18.91905,
19.06945,
15.92284,
17.07941,
19.51409,
18.781,
17.90606,
17.76598,
20.49536,
17.65342,
17.27508,
16.95575,
18.6956,
21.07096,
17.84179,
17.96618,
20.89655,
19.60432,
17.0675,
15.42608,
20.06987,
18.62964,
18.82975,
2087, 
17.87294,
16.98125,
19.25034,
18.20469,
18.88795,
19.06582,
16.12343,
17.1992,
19.49428,
18.80071,
17.87238,
17.74469,
20.41071,
17.76266,
17.35062,
17.06389,
18.60815,
21.06223,
17.79917,
17.99007,
20.8841,
19.70702,
17.07665,
15.41648,
20.0162,
18.71099,
18.83941,
2088, 
17.90681,
17.00092,
19.30177,
18.18109,
18.88825,
19.0763,
16.33544,
17.33549,
19.48573,
18.82997,
17.84343,
17.7234,
20.3244,
17.86375,
17.44736,
17.18302,
18.58365,
21.05511,
17.76711,
18.01188,
20.86964,
19.81221,
17.10064,
15.50591,
19.96255,
18.82576,
18.86096,
2089, 
17.93722,
17.03348,
19.36176,
18.16962,
18.89965,
19.10074,
16.55456,
17.49029,
19.48748,
18.8715,
17.81725,
17.70171,
20.23378,
17.95077,
17.56041,
17.31076,
18.56254,
21.04971,
17.7431,
18.02595,
20.85164,
19.91625,
17.13633,
15.60466,
19.90932,
18.95143,
18.8874,
2090, 
17.96583,
17.07665,
19.43141,
18.17101,
18.92067,
19.13758,
16.77812,
17.6608,
19.49741,
18.92517,
17.79239,
17.67871,
20.13804,
18.02329,
17.68502,
17.44449,
18.54717,
21.04608,
17.72588,
18.03177,
20.82928,
20.01614,
17.18048,
15.72448,
19.85804,
19.11812,
18.91896,
2091, 
17.99472,
17.12967,
19.51011,
18.18785,
18.9225,
19.18447,
16.99817,
17.84019,
19.51224,
18.98779,
17.77061,
17.65548,
20.04151,
18.08186,
17.81691,
17.58223,
18.54365,
21.0442,
17.71697,
18.0316,
20.8026,
20.11044,
17.22998,
15.82852,
19.80987,
19.32599,
18.95469,
2092, 
18.02151,
17.18548,
19.59615,
18.20828,
18.91675,
19.23853,
17.20473,
18.02486,
19.52877,
19.05467,
17.75027,
17.63201,
19.94493,
18.12141,
17.95142,
17.71324,
18.56357,
21.04404,
17.7156,
18.02314,
20.77089,
20.19014,
17.27997,
15.93121,
19.76479,
19.55,
18.9925,
2093, 
18.04864,
17.23891,
19.68766,
18.22867,
18.9031,
19.29807,
17.38664,
18.21211,
19.54424,
19.12317,
17.73027,
17.60809,
19.84726,
18.14876,
18.0795,
17.82227,
18.59026,
21.04552,
17.72056,
18.0087,
20.73393,
20.25195,
17.32512,
16.0309,
19.72241,
19.77955,
19.02963,
2094, 
18.07775,
17.27643,
19.78257,
18.24537,
18.88041,
19.35594,
17.52463,
18.39311,
19.55735,
19.18827,
17.7107,
17.58375,
19.74913,
18.16721,
18.17197,
17.90265,
18.62205,
21.04821,
17.73128,
17.98963,
20.69179,
20.29894,
17.35963,
16.12502,
19.68279,
20.00942,
19.06314,
2095, 
18.11019,
17.30191,
19.87961,
18.26027,
18.85008,
19.38589,
17.62654,
18.53549,
19.56437,
19.24226,
17.69207,
17.55945,
19.65246,
18.17833,
18.2365,
17.97039,
18.65655,
21.05051,
17.74791,
17.96736,
20.64452,
20.33529,
17.37998,
16.21177,
19.646,
20.23443,
19.08942,
2096, 
18.14679,
17.3189,
19.97377,
18.27334,
18.8135,
19.38788,
17.70098,
18.6254,
19.54459,
19.26258,
17.67423,
17.53554,
19.55886,
18.18329,
18.2853,
18.02706,
18.69392,
21.05189,
17.77008,
17.94293,
20.59195,
20.36285,
17.38828,
16.29238,
19.61189,
20.42574,
19.1048,
2097, 
18.18827,
17.32974,
20.04504,
18.28429,
18.77134,
19.37925,
17.75535,
18.69983,
19.51148,
19.2608,
17.65679,
17.51185,
19.46928,
18.18405,
18.32135,
18.07329,
18.73303,
21.05195,
17.79769,
17.91717,
20.53421,
20.38322,
17.39158,
16.36353,
19.58064,
20.5498,
19.11317,
2098, 
18.23501,
17.33479,
20.10435,
18.29314,
18.72195,
19.36014,
17.79085,
18.75674,
19.46872,
19.23601,
17.64002,
17.48939,
19.38978,
18.18156,
18.34491,
18.11184,
18.73211,
21.04988,
17.83066,
17.89113,
20.47145,
20.39778,
17.3872,
16.35147,
19.55168,
20.64473,
19.11287,
2099, 
18.28763,
17.3355,
20.15574,
18.3004,
18.67539,
19.33171,
17.81243,
18.79723,
19.41575,
19.1842,
17.62382,
17.46766,
19.31988,
18.17723,
18.35922,
18.14626,
18.72256,
21.04489,
17.86834,
17.8652,
20.40443,
20.40787,
17.37862,
16.32713,
19.52479,
20.71853,
19.10715,
2100, 
18.34669,
17.33344,
20.19719,
18.30659,
18.63052,
19.29723,
17.82605,
18.82572,
19.35295,
19.11159,
17.60779,
17.44582,
19.25791,
18.17292,
18.36793,
18.18052,
18.70533,
21.03632,
17.91012,
17.83958,
20.33397,
20.41485,
17.36619,
16.28758,
19.49982,
20.77133,
19.09681];
