real main.em.dem.neu.CCpPlaWa[27](t) = [1971, 
21.42857,
21.42857,
21.42857,
21.42857,
21.42857,
21.42857,
21.42857,
21.42857,
21.42857,
21.42857,
21.42857,
21.42857,
21.42857,
21.42857,
21.42857,
21.42857,
21.42857,
21.42857,
21.42857,
21.42857,
21.42857,
21.42857,
21.42857,
21.42857,
21.42857,
21.42857,
0.00000,
1972, 
21.42857,
21.42857,
21.42857,
21.42857,
21.42857,
21.42857,
21.42857,
21.42857,
21.42857,
21.42857,
21.42857,
21.42857,
21.42857,
21.42857,
21.42857,
21.42857,
21.42857,
21.42857,
21.42857,
21.42857,
21.42857,
21.42857,
21.42857,
21.42857,
21.42857,
21.42857,
21.42857,
1973, 
19.47283,
19.47212,
17.94446,
17.8065,
19.44883,
19.47675,
19.43798,
19.47369,
19.4719,
21.78716,
19.45538,
19.11572,
19.4623,
18.62883,
19.45753,
19.40189,
18.99923,
19.50445,
19.4629,
19.43057,
17.04424,
19.42742,
19.46617,
19.03708,
16.91058,
19.46902,
19.37362,
1974, 
19.57566,
19.57565,
18.04456,
16.75057,
19.50672,
19.57978,
19.52865,
19.57047,
19.58998,
21.79531,
19.53165,
19.21642,
19.56458,
18.93623,
19.51558,
18.87436,
18.34974,
19.61607,
19.51136,
19.43929,
17.28199,
19.04326,
19.5603,
19.38311,
17.11101,
19.55496,
19.3741,
1975, 
19.57485,
19.58175,
18.0139,
16.86592,
19.49141,
19.5729,
19.5016,
19.52482,
19.57371,
21.83698,
19.5377,
19.21735,
19.55476,
18.93431,
19.49765,
18.86878,
18.3387,
19.63092,
19.49101,
19.44596,
17.30653,
19.02609,
19.56834,
19.38633,
17.08792,
19.54389,
19.36915,
1976, 
19.50322,
19.51068,
17.86866,
16.69108,
19.43539,
19.50352,
19.43962,
19.48202,
19.48995,
21.83995,
19.47153,
19.14416,
19.47741,
18.87678,
19.43232,
18.74785,
18.2482,
19.49267,
19.4287,
19.38773,
17.22039,
18.96931,
19.49613,
19.31781,
16.93726,
19.49884,
19.28917,
1977, 
19.33126,
19.42717,
17.72793,
16.45202,
19.37481,
19.4227,
17.95374,
19.39824,
19.40137,
21.85654,
19.39042,
19.07097,
19.39868,
18.80807,
19.35296,
18.58838,
18.10434,
19.42084,
19.36693,
19.34644,
17.22271,
18.91413,
19.41852,
19.24664,
16.73077,
19.42709,
19.18073,
1978, 
19.30789,
19.37293,
17.63606,
16.2767,
19.3411,
19.36842,
18.04004,
19.35479,
19.35397,
21.84828,
19.34397,
19.03386,
19.35555,
18.7793,
19.30429,
18.46783,
18.01291,
19.35807,
19.33307,
19.31947,
17.26137,
18.97414,
19.36759,
19.20651,
16.74539,
19.37841,
19.11832,
1979, 
19.26559,
19.34466,
17.54775,
16.19553,
19.32454,
19.3418,
17.80752,
19.33669,
19.33605,
21.85979,
19.31609,
19.02172,
19.33397,
18.77387,
19.27626,
18.39307,
17.96787,
19.33111,
19.31769,
19.30766,
17.33779,
18.91142,
19.34116,
19.19135,
16.63716,
19.35329,
19.08069,
1980, 
19.23879,
19.33149,
17.47728,
16.14712,
19.31625,
19.32811,
17.68567,
19.3249,
19.32543,
21.87071,
19.30481,
19.02127,
19.32425,
18.75995,
19.26194,
18.34746,
17.93696,
19.32701,
19.31118,
19.30394,
17.43378,
18.92336,
19.32858,
19.18385,
16.65343,
19.3401,
19.05614,
1981, 
19.22751,
19.32648,
17.4182,
16.14269,
19.31247,
19.32307,
17.59583,
19.32145,
19.32112,
21.90345,
19.30136,
19.02154,
19.32243,
18.76293,
19.24912,
18.32307,
17.92784,
19.31909,
19.30965,
19.30241,
17.51363,
18.94243,
19.32365,
19.18476,
16.68836,
19.33398,
19.04374,
1982, 
19.08805,
19.32405,
17.36147,
16.09438,
19.31184,
19.32071,
17.51789,
19.32233,
19.31899,
21.93477,
19.29302,
19.01922,
19.32005,
18.65314,
19.23343,
18.30208,
17.9269,
19.31531,
19.3081,
19.30172,
17.57755,
18.95782,
19.32137,
19.1386,
16.66955,
19.33347,
19.02661,
1983, 
19.10196,
19.32202,
17.3561,
16.08789,
19.31061,
19.31925,
17.49686,
19.32107,
19.31716,
21.92184,
19.29731,
19.01975,
19.31819,
18.60432,
19.20522,
18.28888,
17.93354,
19.31307,
19.30673,
19.3012,
17.69057,
18.95657,
19.3191,
19.12785,
16.69266,
19.33274,
19.02336,
1984, 
19.08633,
19.31874,
17.36802,
15.96691,
19.30945,
19.31676,
17.43069,
19.32024,
19.31476,
21.89481,
19.29188,
19.02026,
19.31564,
18.57406,
19.18942,
18.23064,
17.93223,
19.30932,
19.30523,
19.30073,
17.74164,
18.97276,
19.31638,
19.12516,
16.69068,
19.33008,
19.01402,
1985, 
19.06719,
19.31492,
17.34455,
15.91713,
19.30746,
19.31321,
17.37221,
19.31797,
19.31335,
21.91983,
19.28802,
19.02267,
19.31247,
18.53905,
19.17463,
18.19808,
17.93306,
19.30686,
19.30394,
19.30038,
17.76858,
19.00868,
19.3132,
19.11641,
16.69837,
19.32492,
19.00772,
1986, 
19.04263,
19.3114,
17.33381,
15.85859,
19.30549,
19.31012,
17.32134,
19.3138,
19.3115,
21.89071,
19.28592,
19.02252,
19.30959,
18.51489,
19.16856,
18.16194,
17.93597,
19.30452,
19.30285,
19.30021,
17.75166,
19.03645,
19.31005,
19.10384,
16.71984,
19.31939,
19.00228,
1987, 
19.02331,
19.30847,
17.3582,
15.79452,
19.3039,
19.30692,
17.2319,
19.31071,
19.3083,
21.8691,
19.28498,
19.02554,
19.30698,
18.49178,
19.16189,
18.12397,
17.93976,
19.30291,
19.30195,
19.30034,
17.77559,
19.07044,
19.30751,
19.09287,
16.72871,
19.31487,
19.00289,
1988, 
19.01465,
19.30623,
17.35851,
15.72897,
19.30282,
19.30465,
17.26034,
19.30873,
19.30548,
21.86104,
19.2844,
19.02789,
19.30499,
18.472,
19.15608,
18.08615,
17.9415,
19.30188,
19.30134,
19.51634,
17.83191,
19.1025,
19.30555,
19.08477,
16.71373,
19.31038,
19.00233,
1989, 
18.99113,
19.30468,
17.3634,
15.66542,
19.30213,
19.30306,
17.26394,
19.30651,
19.30416,
21.86915,
19.28419,
19.03007,
19.30386,
18.45291,
19.13457,
18.03432,
17.91883,
19.30099,
19.30093,
19.69123,
17.9201,
19.12563,
19.30415,
19.07914,
16.6808,
19.30726,
18.99956,
1990, 
18.97682,
19.3039,
17.35685,
15.60295,
19.30173,
19.30249,
17.29451,
19.30542,
19.30328,
21.86463,
19.28576,
19.03148,
19.30327,
18.43322,
19.12205,
17.99417,
17.91842,
19.30063,
19.30073,
19.82397,
18.01514,
19.15988,
19.30344,
19.07428,
16.71146,
19.30597,
18.99599,
1991, 
18.95907,
19.30331,
17.34434,
15.54522,
19.30153,
19.30182,
17.32206,
19.3047,
19.30284,
21.84134,
19.28728,
19.02278,
19.30265,
18.42552,
19.10056,
17.95043,
17.91069,
19.30038,
19.30058,
19.95352,
18.10101,
19.1893,
19.3029,
19.06647,
16.71408,
19.30494,
18.9931,
1992, 
18.94223,
19.30312,
17.33249,
15.48576,
19.30142,
19.30141,
17.34822,
19.30446,
19.30266,
21.81346,
19.28895,
19.0084,
19.30247,
18.4251,
19.12947,
17.90291,
17.90447,
19.30032,
19.30049,
20.06248,
18.16788,
19.2138,
19.30268,
19.06045,
16.72322,
19.30454,
18.9921,
1993, 
18.92851,
19.29605,
17.32083,
15.45839,
19.30151,
19.28156,
17.37021,
19.30488,
19.3028,
21.77473,
19.2989,
18.99809,
19.30151,
18.43084,
19.14365,
17.83583,
17.89327,
19.30025,
19.30048,
20.03259,
18.2405,
19.22698,
19.29722,
19.05774,
16.79326,
19.30521,
18.99212,
1994, 
18.90871,
19.28271,
17.3258,
15.43301,
19.30171,
19.24783,
17.26647,
19.30595,
19.30308,
21.75366,
19.30208,
18.98765,
19.30002,
18.43732,
19.15505,
17.76662,
17.8933,
19.30021,
19.3005,
19.99573,
18.31426,
19.22777,
19.29164,
19.05196,
16.79389,
19.30703,
18.99064,
1995, 
18.89047,
19.27069,
17.32185,
15.41138,
19.30204,
19.21938,
17.14865,
19.3077,
19.30396,
21.74231,
19.30568,
18.98211,
19.29988,
18.44703,
19.16708,
17.69414,
17.89279,
19.30016,
19.30056,
19.95602,
18.38897,
19.22477,
19.28555,
19.04781,
16.82107,
19.30891,
18.99159,
1996, 
18.87307,
19.25771,
17.36468,
15.39634,
19.30243,
19.18994,
16.99333,
19.30948,
19.30449,
21.73269,
19.30859,
18.97944,
19.29897,
18.45081,
19.18113,
17.60892,
17.89612,
19.30008,
19.30064,
19.9269,
18.45543,
19.21761,
19.27866,
19.04378,
16.88216,
19.31104,
18.99497,
1997, 
18.85665,
19.24424,
17.36805,
15.38675,
19.30296,
19.16358,
16.82854,
19.31152,
19.305,
21.73932,
19.31132,
18.97849,
19.298,
18.45827,
19.19885,
17.51549,
17.89805,
19.29999,
19.30074,
19.90631,
18.512,
19.20602,
19.27126,
19.0414,
16.9359,
19.31301,
18.99203,
1998, 
18.86081,
19.23026,
17.36988,
15.38114,
19.30345,
19.14093,
16.67818,
19.31361,
19.30545,
21.7415,
19.31302,
18.97827,
19.29686,
18.47231,
19.21518,
17.41204,
17.9037,
19.29996,
19.30085,
19.82591,
18.54527,
19.18876,
19.26346,
19.04754,
16.98531,
19.31471,
18.98765,
1999, 
18.86189,
19.21587,
17.37911,
15.37755,
19.30398,
19.11774,
16.54424,
19.31539,
19.30601,
21.73252,
19.3121,
18.97535,
19.29605,
18.48565,
19.22798,
17.31709,
17.90836,
19.29988,
19.30099,
19.76727,
18.51953,
19.15974,
19.25524,
19.05558,
17.0421,
19.31575,
18.98143,
2000, 
18.8588,
19.19956,
17.39175,
15.37259,
19.30443,
19.08855,
16.42381,
19.31718,
19.30621,
21.74029,
19.30759,
18.96386,
19.29561,
18.48865,
19.2366,
17.2107,
17.91648,
19.29977,
19.30105,
19.73632,
18.55008,
19.13017,
19.24685,
19.05834,
17.04591,
19.31656,
18.97264,
2001, 
18.85439,
19.18184,
17.39617,
15.36943,
19.30466,
19.06603,
16.32716,
19.31797,
19.3061,
21.76173,
19.3046,
18.95985,
19.29406,
18.49544,
19.23855,
17.11099,
17.92219,
19.29972,
19.30109,
19.72674,
18.58505,
19.10107,
19.23854,
19.0626,
17.10146,
19.31677,
18.96174,
2002, 
18.85074,
19.1639,
17.41919,
15.36754,
19.30486,
19.05053,
16.25191,
19.31786,
19.30564,
21.77302,
19.30105,
18.95359,
19.29383,
18.49652,
19.22959,
17.02335,
17.93309,
19.29964,
19.30112,
19.72093,
18.59186,
19.05626,
19.22978,
19.06821,
17.11804,
19.31637,
18.95384,
2003, 
18.84867,
19.1445,
17.44223,
15.36588,
19.30489,
19.04513,
16.19236,
19.31788,
19.30554,
21.79353,
19.28888,
18.92073,
19.29147,
18.4923,
19.21581,
17.04476,
17.9454,
19.29958,
19.30112,
19.76031,
18.61379,
18.98309,
19.22544,
19.07513,
17.18765,
19.31454,
18.9507,
2004, 
18.84706,
19.12441,
17.46806,
15.3657,
19.3052,
19.04999,
16.15519,
19.31704,
19.30544,
21.81211,
19.28322,
18.90708,
19.28965,
18.47903,
19.19459,
17.09982,
17.95787,
19.29948,
19.30118,
19.8257,
18.63492,
18.951,
19.22241,
19.08113,
17.24988,
19.31442,
18.95078,
2005, 
18.83606,
19.09973,
17.49232,
15.36371,
19.30453,
19.06084,
16.12975,
19.3132,
19.30427,
21.84709,
19.27936,
18.90664,
19.28669,
18.43699,
19.16181,
17.16847,
17.97053,
19.29935,
19.30108,
19.92134,
18.6673,
18.93248,
19.21863,
19.07909,
17.33838,
19.31103,
18.95602,
2006, 
18.82613,
19.07257,
17.52187,
15.36137,
19.30421,
19.07505,
16.11012,
19.09294,
19.30347,
21.88387,
19.27511,
18.90173,
19.28361,
18.40613,
19.12436,
17.24694,
17.98774,
19.29924,
19.30103,
20.03005,
18.69326,
18.91513,
19.21625,
19.0776,
17.43218,
19.30839,
18.96561,
2007, 
18.81499,
19.04371,
17.55344,
15.35916,
19.30381,
19.0839,
16.13295,
18.87099,
19.30258,
21.92669,
19.27253,
18.90669,
19.28068,
18.35152,
19.08317,
17.34584,
18.00986,
19.29915,
19.30096,
20.18866,
18.72315,
18.91671,
19.21465,
19.0733,
17.51335,
19.30617,
18.9884,
2008, 
18.80401,
19.01616,
17.58905,
15.35719,
19.30333,
19.0723,
16.15655,
18.70135,
19.30186,
21.94778,
19.26958,
18.91167,
19.27867,
18.28682,
19.03142,
17.44502,
18.03655,
19.29907,
19.30089,
20.36858,
18.74868,
18.92917,
19.21351,
19.06605,
17.58176,
19.30426,
19.02328,
2009, 
18.7979,
18.99057,
17.62173,
15.3563,
19.30288,
19.0508,
16.28536,
18.54162,
19.30138,
21.95187,
19.26503,
18.92274,
19.27656,
18.23601,
18.99182,
17.5427,
18.06678,
19.29903,
19.30083,
20.51012,
18.768,
18.95429,
19.21222,
19.0572,
17.61102,
19.30313,
19.0569,
2010, 
18.79308,
18.96213,
17.65706,
15.3673,
19.30253,
19.06036,
16.29907,
18.37154,
19.30105,
21.91518,
19.26179,
18.93173,
19.27419,
18.25395,
18.967,
17.63979,
18.10014,
19.29905,
19.30506,
20.65722,
18.77595,
18.98597,
19.21054,
19.04703,
17.66114,
19.30251,
19.10414,
2011, 
18.78785,
18.92664,
17.69653,
15.37285,
19.3021,
19.06127,
16.32126,
18.18585,
19.30077,
21.90236,
19.25746,
18.94451,
19.2676,
18.20497,
18.92211,
17.72606,
18.13504,
19.29908,
19.31003,
20.82383,
18.80906,
19.01608,
19.21009,
19.03315,
17.69176,
19.30185,
19.15476,
2012, 
18.78316,
18.88628,
17.73725,
15.4478,
19.30175,
19.05458,
16.3158,
18.00846,
19.30059,
21.88682,
19.25248,
18.96,
19.25815,
18.15404,
18.87465,
17.80604,
18.16902,
19.29914,
19.31552,
20.98906,
18.82611,
19.04565,
19.20919,
19.0139,
17.71834,
19.3014,
19.21008,
2013, 
18.78022,
18.84523,
17.78248,
15.49443,
19.30147,
19.06097,
16.33521,
17.90792,
19.3,
21.84071,
19.25534,
18.99168,
19.25396,
18.1267,
18.83709,
17.82121,
18.20888,
19.29922,
19.32184,
21.15666,
18.8497,
19.12149,
19.20915,
18.99224,
17.75643,
19.30103,
19.26696,
2014, 
18.77833,
18.7967,
17.83047,
15.51457,
19.30121,
19.05902,
16.31835,
17.75503,
19.3,
21.79905,
19.25265,
19.01345,
19.24394,
18.0991,
18.78771,
17.81557,
18.24773,
19.29926,
19.32887,
21.31934,
18.87385,
19.1438,
19.20934,
18.97046,
17.79906,
19.30077,
19.32355,
2015, 
18.77795,
18.74007,
17.88218,
15.54921,
19.301,
19.05567,
16.29545,
17.61251,
19.3,
21.75583,
19.24757,
19.02917,
19.23237,
18.08922,
18.75183,
17.79254,
18.28677,
19.29934,
19.33632,
21.47588,
18.89342,
19.14108,
19.20999,
18.94512,
17.84353,
19.30058,
19.37796,
2016, 
18.77821,
18.67903,
17.93634,
15.59559,
19.30085,
19.04356,
16.27431,
17.67615,
19.3,
21.7057,
19.2452,
19.05064,
19.2193,
18.09666,
18.73629,
17.74608,
18.32311,
19.29944,
19.34423,
21.62733,
18.91368,
19.14336,
19.2144,
18.91626,
17.88914,
19.30046,
19.43339,
2017, 
18.77709,
18.61287,
17.99185,
15.6321,
19.30071,
19.04059,
16.22305,
17.70027,
19.3,
21.64995,
19.24573,
19.06771,
19.20482,
18.07479,
18.72253,
17.68763,
18.35618,
19.29953,
19.35295,
21.77182,
18.93174,
19.13371,
19.22344,
18.88396,
17.94096,
19.30036,
19.48415,
2018, 
18.7746,
18.54071,
18.05059,
15.65083,
19.30057,
19.044,
16.17311,
17.7116,
19.3,
21.62819,
19.25066,
19.08371,
19.18797,
18.04332,
18.67622,
17.62193,
18.38536,
19.29957,
19.36237,
21.92337,
18.95277,
19.12003,
19.23787,
18.84653,
17.99281,
19.30026,
19.53897,
2019, 
18.77186,
18.46985,
18.1116,
15.66654,
19.30045,
19.06728,
16.02796,
17.78092,
19.3,
21.5875,
19.2619,
19.09585,
19.17456,
18.00853,
18.63184,
17.55211,
18.41641,
19.2996,
19.3716,
22.07615,
18.96864,
19.12356,
19.25854,
18.80447,
18.04461,
19.30019,
19.59582,
2020, 
18.77001,
18.40081,
18.17348,
15.6699,
19.30035,
19.05192,
15.97403,
17.83954,
19.3,
21.5416,
19.27439,
19.09425,
19.16083,
17.96769,
18.58411,
17.48403,
18.44623,
19.29956,
19.37801,
22.22099,
18.97965,
19.12516,
19.28226,
18.75564,
18.09038,
19.30014,
19.65058,
2021, 
18.77039,
18.34345,
18.208,
15.67552,
19.30029,
19.03326,
15.90968,
17.82282,
19.3,
21.43476,
19.28356,
19.08468,
19.1505,
17.96298,
18.58579,
17.45171,
18.47268,
19.29952,
19.3838,
22.32477,
18.97474,
19.1188,
19.30569,
18.7075,
18.05783,
19.30012,
19.70738,
2022, 
18.7695,
18.27728,
18.26599,
15.6316,
19.30022,
19.02129,
15.84019,
17.86618,
19.3,
21.36301,
19.30261,
19.07824,
19.14105,
17.92948,
18.55053,
17.38903,
18.50369,
19.29947,
19.38893,
22.45512,
18.98181,
19.13209,
19.33435,
18.65094,
18.07838,
19.30009,
19.75985,
2023, 
18.76993,
18.22064,
18.3193,
15.60011,
19.30017,
18.99646,
15.7844,
17.86853,
19.30383,
21.2955,
19.31928,
19.06697,
19.15363,
17.88877,
18.51623,
17.34162,
18.52973,
19.2994,
19.39573,
22.5605,
18.98844,
19.1369,
19.36434,
18.58954,
18.09402,
19.29819,
19.80622,
2024, 
18.7702,
18.17107,
18.37263,
15.58449,
19.28881,
18.92817,
15.73337,
17.91409,
19.31108,
21.21111,
19.33565,
19.02579,
19.16834,
17.84731,
18.45409,
17.2366,
18.55787,
19.15852,
19.40464,
22.65908,
18.98636,
19.14868,
19.39557,
18.50683,
18.06832,
19.27625,
19.84028,
2025, 
18.77062,
18.12771,
18.42257,
15.56526,
19.28676,
18.85416,
15.6873,
17.96504,
19.32215,
21.11798,
19.35329,
18.98623,
19.18704,
17.80295,
18.40609,
17.17124,
18.58575,
19.08233,
19.41501,
22.74611,
18.98871,
19.17226,
19.42756,
18.42359,
18.05134,
19.26017,
19.87346,
2026, 
18.77176,
18.08755,
18.47212,
15.58064,
19.2847,
18.80512,
15.64495,
18.02311,
19.37918,
21.02551,
19.37151,
18.96259,
19.23416,
17.75411,
18.34888,
17.15026,
18.61163,
19.05679,
19.43244,
22.81685,
19.02228,
19.19543,
19.4606,
18.34403,
18.04912,
19.2542,
19.90203,
2027, 
18.77338,
18.05501,
18.52006,
15.62079,
19.28232,
18.7502,
15.60642,
18.10408,
19.43812,
20.9376,
19.38882,
18.93818,
19.28669,
17.70523,
18.28394,
17.11774,
18.63562,
19.03165,
19.44901,
22.8796,
19.0695,
19.21932,
19.49367,
18.26643,
18.05351,
19.24655,
19.92598,
2028, 
18.77501,
18.02954,
18.56542,
15.69865,
19.28036,
18.69872,
15.57039,
18.18059,
19.51167,
20.8497,
19.40608,
18.91494,
19.34805,
17.65525,
18.22859,
17.08103,
18.65868,
19.01094,
19.4653,
22.92993,
19.1445,
19.24361,
19.52593,
18.18343,
18.06112,
19.23889,
19.94619,
2029, 
18.77655,
18.00826,
18.60734,
15.78644,
19.27902,
18.61674,
15.53661,
18.20612,
19.59836,
20.77642,
19.42244,
18.88036,
19.41702,
17.60477,
18.17007,
17.04922,
18.67482,
18.98608,
19.48098,
22.96874,
19.24517,
19.25336,
19.55771,
18.08329,
18.06192,
19.21744,
19.96009,
2030, 
18.77767,
17.99488,
18.64415,
15.91056,
19.27808,
18.54508,
15.5057,
18.2562,
19.70229,
20.70779,
19.43838,
18.85666,
19.4984,
17.55632,
18.11246,
17.01574,
18.68864,
18.91214,
19.49766,
22.9989,
19.37153,
19.26312,
19.58789,
17.97973,
18.05587,
19.19818,
19.96911,
2031, 
18.78036,
17.98857,
18.67725,
16.07355,
19.27772,
18.49773,
15.478,
18.29386,
19.86515,
20.64298,
19.45295,
18.84586,
19.59002,
17.51162,
18.05637,
16.99885,
18.7023,
18.86275,
19.51718,
23.01914,
19.52339,
19.27082,
19.61428,
17.88065,
18.06056,
19.1928,
19.97973,
2032, 
18.78488,
17.9895,
18.70935,
16.26333,
19.27751,
18.45581,
15.45388,
18.32051,
20.04296,
20.581,
19.46583,
18.8391,
19.69381,
17.47204,
18.00489,
16.98683,
18.71566,
18.84168,
19.54059,
23.02448,
19.68825,
19.27594,
19.63605,
17.77379,
18.06533,
19.18879,
19.98764,
2033, 
18.79114,
17.99317,
18.73853,
16.46785,
19.27738,
18.41996,
15.43297,
18.33894,
20.2282,
20.5231,
19.47538,
18.837,
19.79215,
17.43668,
17.9544,
16.97972,
18.7283,
18.82349,
19.56409,
23.01806,
19.85029,
19.27918,
19.65241,
17.67234,
18.06928,
19.19065,
19.99206,
2034, 
18.7983,
18.00285,
18.7643,
16.68208,
19.28663,
18.43154,
15.41551,
18.35328,
20.42046,
20.46906,
19.48342,
18.85748,
19.89581,
17.40535,
17.93159,
17.03678,
18.73888,
18.9141,
19.58945,
22.99991,
20.01915,
19.28159,
19.66386,
17.586,
18.11123,
19.22068,
20.00654,
2035, 
18.80554,
18.01664,
18.78736,
16.9026,
19.2884,
18.44895,
15.40153,
18.35946,
20.61678,
20.41959,
19.49112,
18.88254,
20.00212,
17.37748,
17.88738,
17.07158,
18.74771,
18.95799,
19.6172,
22.97008,
20.18421,
19.28326,
19.67381,
17.50218,
18.14703,
19.25336,
20.01399,
2036, 
18.81305,
18.03538,
18.80784,
17.10172,
19.28991,
18.45622,
15.39094,
18.35842,
20.78378,
20.37463,
19.49919,
18.90617,
20.09512,
17.35306,
17.84542,
17.09178,
18.75511,
18.97098,
19.64457,
22.92967,
20.32704,
19.28443,
19.68375,
17.41794,
18.17513,
19.28776,
20.01387,
2037, 
18.82064,
18.05645,
18.82453,
17.28815,
19.29181,
18.4724,
15.38352,
18.35116,
20.946,
20.33494,
19.51143,
18.93649,
20.18427,
17.33303,
17.80817,
17.11945,
18.76107,
18.98722,
19.67359,
22.87817,
20.45322,
19.28544,
19.69567,
17.34167,
18.20999,
19.33146,
20.01121,
2038, 
18.82833,
18.08021,
18.83721,
17.45988,
19.29353,
18.49272,
15.37879,
18.34384,
21.09471,
20.30032,
19.52738,
18.97189,
20.26823,
17.31603,
17.77127,
17.14776,
18.76728,
19.00188,
19.70564,
22.81767,
20.55714,
19.2864,
19.70759,
17.2745,
18.24806,
19.38215,
20.00606,
2039, 
18.83611,
18.10659,
18.8474,
17.62058,
19.29478,
18.52444,
15.3765,
18.33774,
21.23025,
20.27086,
19.54659,
19.01454,
20.34492,
17.30277,
17.73473,
17.17557,
18.77251,
19.01752,
19.73874,
22.7498,
20.6405,
19.28743,
19.71873,
17.21985,
18.29257,
19.43912,
19.99929,
2040, 
18.84455,
18.13506,
18.8574,
17.76343,
19.29568,
18.56165,
15.37654,
18.32593,
21.34838,
20.2434,
19.56991,
19.05971,
20.41183,
17.2918,
17.69861,
17.20839,
18.77748,
19.06702,
19.77102,
22.67634,
20.70948,
19.28819,
19.72922,
17.16448,
18.34362,
19.51691,
19.99462,
2041, 
18.85444,
18.16508,
18.86492,
17.87959,
19.29621,
18.59028,
15.37946,
18.31271,
21.42887,
20.21893,
19.59712,
19.10185,
20.46883,
17.28304,
17.66323,
17.22875,
18.78477,
19.09835,
19.8005,
22.59988,
20.76175,
19.28876,
19.73613,
17.11072,
18.38497,
19.60954,
19.98571,
2042, 
18.8665,
18.19581,
18.87083,
17.97981,
19.2966,
18.61749,
15.38443,
18.29732,
21.49093,
20.19595,
19.62691,
19.14482,
20.51827,
17.27659,
17.63188,
17.24829,
18.79468,
19.10641,
19.82654,
22.52291,
20.803,
19.28919,
19.74074,
17.0565,
18.42232,
19.73554,
19.97391,
2043, 
18.88088,
18.22711,
18.87548,
18.06779,
19.29694,
18.64569,
15.39071,
18.2794,
21.53709,
20.17432,
19.65837,
19.18923,
20.56194,
17.27119,
17.60234,
17.26589,
18.80688,
19.1092,
19.84949,
22.44509,
20.8353,
19.2895,
19.74516,
17.00109,
18.45774,
19.88757,
19.96108,
2044, 
18.89777,
18.25826,
18.87959,
18.14422,
19.29724,
18.67286,
15.39655,
18.25867,
21.56974,
20.15289,
19.69029,
19.23354,
20.60037,
17.26557,
17.57477,
17.28138,
18.82025,
19.10193,
19.86902,
22.36274,
20.86099,
19.28974,
19.74864,
16.94298,
18.49014,
20.07803,
19.9455,
2045, 
18.91729,
18.28818,
18.88446,
18.21009,
19.29753,
18.70009,
15.40215,
18.23522,
21.59113,
20.12994,
19.72159,
19.27664,
20.63387,
17.25914,
17.5489,
17.29332,
18.83458,
19.08373,
19.88423,
22.27348,
20.88116,
19.28985,
19.751,
16.88164,
18.51703,
20.24643,
19.92602,
2046, 
18.9395,
18.31672,
18.88964,
18.26682,
19.29778,
18.72852,
15.40825,
18.20979,
21.60551,
20.10642,
19.75034,
19.31606,
20.66315,
17.25212,
17.52402,
17.30143,
18.84974,
19.0591,
19.89493,
22.18102,
20.89657,
19.28985,
19.7512,
16.81762,
18.53741,
20.40182,
19.90399,
2047, 
18.96325,
18.3429,
18.89525,
18.31513,
19.29799,
18.75798,
15.41383,
18.18146,
21.61466,
20.08279,
19.77517,
19.35048,
20.68847,
17.2448,
17.50192,
17.30605,
18.86549,
19.03058,
19.90068,
22.08768,
20.90768,
19.28974,
19.74845,
16.75105,
18.55194,
20.55194,
19.88007,
2048, 
18.98807,
18.36628,
18.90137,
18.35521,
19.29815,
18.78939,
15.41862,
18.15048,
21.62017,
20.0584,
19.79603,
19.37948,
20.71093,
17.23676,
17.48073,
17.30669,
18.88159,
18.99656,
19.90276,
21.99267,
20.91598,
19.28954,
19.74259,
16.68219,
18.56227,
20.70012,
19.85402,
2049, 
19.01344,
18.38591,
18.90808,
18.38863,
19.29827,
18.82203,
15.42308,
18.11709,
21.62283,
20.03332,
19.81269,
19.40205,
20.73091,
17.22755,
17.46036,
17.30349,
18.89773,
18.95613,
19.90182,
21.89657,
20.92154,
19.28925,
19.73372,
16.61176,
18.57079,
20.86005,
19.82582,
2050, 
19.03845,
18.4012,
18.91543,
18.41598,
19.29834,
18.8569,
15.43082,
18.08164,
21.62347,
20.00788,
19.82442,
19.41883,
20.74879,
17.21798,
17.43967,
17.2966,
18.91388,
18.9265,
19.89788,
21.80022,
20.92468,
19.28888,
19.72199,
16.53994,
18.5801,
21.00766,
19.79786,
2051, 
19.06197,
18.41142,
18.92336,
18.4378,
19.29837,
18.89443,
15.4432,
18.04451,
21.6224,
19.98234,
19.83078,
19.42916,
20.76496,
17.20846,
17.41849,
17.28607,
18.93,
18.90859,
19.89081,
21.70445,
20.92587,
19.28829,
19.70756,
16.46644,
18.59197,
21.14253,
19.77055,
2052, 
19.08273,
18.4165,
18.9317,
18.45432,
19.29836,
18.93452,
15.46261,
18.00595,
21.62045,
19.95714,
19.83187,
19.43297,
20.77938,
17.1992,
17.39796,
17.27247,
18.94602,
18.8998,
19.88074,
21.61164,
20.9254,
19.28761,
19.69072,
16.39286,
18.60791,
21.25665,
19.74423,
2053, 
19.09951,
18.41702,
18.94043,
18.46693,
19.29832,
18.97878,
15.49549,
17.96818,
21.61835,
19.93257,
19.82785,
19.43032,
20.79274,
17.19086,
17.37891,
17.25683,
18.96119,
18.90808,
19.86852,
21.52074,
20.9239,
19.28682,
19.67174,
16.33112,
18.62983,
21.35379,
19.72038,
2054, 
19.11109,
18.41228,
18.94945,
18.4761,
19.29825,
19.02688,
15.54179,
17.93053,
21.61595,
19.90837,
19.81875,
19.42159,
20.80542,
17.18328,
17.35995,
17.23899,
18.97608,
18.93403,
19.85431,
21.43237,
20.92168,
19.28592,
19.6507,
16.2751,
18.65867,
21.4198,
19.69915,
2055, 
19.11675,
18.40247,
18.95868,
18.48259,
19.29816,
19.07537,
15.59282,
17.89305,
21.61352,
19.8844,
19.80492,
19.4068,
20.8177,
17.17605,
17.34106,
17.21941,
18.99047,
18.97502,
19.83893,
21.34688,
20.91914,
19.28487,
19.62781,
16.22315,
18.69359,
21.49646,
19.68046,
2056, 
19.11469,
18.38735,
18.96798,
18.48708,
19.29804,
19.12118,
15.64248,
17.85593,
21.60818,
19.86097,
19.78684,
19.38609,
20.82944,
17.16896,
17.32257,
17.19836,
19.00326,
19.03057,
19.82245,
21.26465,
20.91633,
19.28366,
19.60349,
16.17519,
18.73518,
21.57239,
19.66392,
2057, 
19.10524,
18.36761,
18.97718,
18.48975,
19.29793,
19.16735,
15.69284,
17.82029,
21.60095,
19.83888,
19.76542,
19.36028,
20.84027,
17.16232,
17.30463,
17.17596,
19.01405,
19.10313,
19.80536,
21.18749,
20.91342,
19.28222,
19.57854,
16.13265,
18.78742,
21.64632,
19.6508,
2058, 
19.0881,
18.34326,
18.98629,
18.49135,
19.29782,
19.21417,
15.73878,
17.78584,
21.5919,
19.81836,
19.74129,
19.33007,
20.84998,
17.15656,
17.28727,
17.15292,
19.02297,
19.19267,
19.78739,
21.11467,
20.91032,
19.28056,
19.55335,
16.09543,
18.85201,
21.7134,
19.641,
2059, 
19.06343,
18.31454,
18.99523,
18.49209,
19.29775,
19.26077,
15.77996,
17.75283,
21.58069,
19.79932,
19.71487,
19.29599,
20.85776,
17.15178,
17.27053,
17.12955,
19.03054,
19.29931,
19.76815,
21.04646,
20.9075,
19.27867,
19.52788,
16.06285,
18.93039,
21.77437,
19.63478,
2060, 
19.03181,
18.28231,
19.00396,
18.49224,
19.29771,
19.30599,
15.81425,
17.72098,
21.56709,
19.78104,
19.68575,
19.25858,
20.86415,
17.14795,
17.2546,
17.10697,
19.0369,
19.41201,
19.74771,
20.98303,
20.90525,
19.27653,
19.50146,
16.03358,
19.02327,
21.82594,
19.63056,
2061, 
18.99307,
18.24683,
19.01236,
18.49202,
19.29771,
19.34918,
15.84006,
17.68976,
21.55079,
19.7634,
19.65415,
19.21852,
20.86961,
17.14473,
17.23997,
17.08561,
19.04209,
19.52682,
19.72617,
20.92438,
20.90364,
19.27424,
19.47371,
16.00798,
19.12692,
21.85901,
19.62755,
2062, 
18.94856,
18.20905,
19.02036,
18.49159,
19.29774,
19.38794,
15.85628,
17.66,
21.53206,
19.74654,
19.62039,
19.17659,
20.87408,
17.14254,
17.22655,
17.06587,
19.04621,
19.64264,
19.70378,
20.87122,
20.90269,
19.27184,
19.44442,
15.98646,
19.23956,
21.86837,
19.62568,
2063, 
18.8988,
18.16917,
19.02793,
18.49136,
19.29782,
19.41937,
15.85908,
17.63075,
21.5101,
19.73,
19.58467,
19.13346,
20.87788,
17.1412,
17.21458,
17.04819,
19.04947,
19.7554,
19.68036,
20.82262,
20.9025,
19.26935,
19.41298,
15.96849,
19.35654,
21.83932,
19.62359,
2064, 
18.84572,
18.12885,
19.03511,
18.4914,
19.29794,
19.44475,
15.84894,
17.60216,
21.48434,
19.71379,
19.54724,
19.08981,
20.88111,
17.14083,
17.20443,
17.03288,
19.05198,
19.86449,
19.65678,
20.77839,
20.90309,
19.26685,
19.37877,
15.95434,
19.47375,
21.76832,
19.62106,
2065, 
18.79118,
18.0891,
19.04193,
18.49176,
19.29809,
19.46638,
15.83126,
17.57454,
21.45476,
19.6979,
19.50842,
19.04621,
20.88381,
17.14152,
17.19633,
17.02021,
19.05384,
19.96989,
19.6336,
20.73831,
20.90443,
19.26436,
19.34041,
15.9441,
19.59196,
21.66829,
19.61842,
2066, 
18.73662,
18.05032,
19.04836,
18.49238,
19.29826,
19.48374,
15.81007,
17.54773,
21.42075,
19.68235,
19.46856,
19.00327,
20.88595,
17.14252,
17.1905,
17.01047,
19.05509,
20.06911,
19.61102,
20.70206,
20.90645,
19.26196,
19.29871,
15.93785,
19.70711,
21.54973,
19.61519,
2067, 
18.68431,
18.01402,
19.0544,
18.49319,
19.29845,
19.49981,
15.78524,
17.52214,
21.38623,
19.66738,
19.4281,
18.96165,
20.8874,
17.14454,
17.18768,
17.00373,
19.05573,
20.15856,
19.58921,
20.66967,
20.90901,
19.25974,
19.25519,
15.93592,
19.81528,
21.42101,
19.6113,
2068, 
18.63356,
17.98069,
19.06018,
18.49415,
19.29865,
19.51743,
15.76036,
17.49427,
21.3523,
19.65244,
19.38711,
18.92122,
20.88873,
17.14714,
17.18629,
16.99599,
19.05592,
20.2392,
19.56814,
20.64057,
20.91203,
19.25769,
19.20997,
15.93143,
19.91494,
21.2689,
19.60637,
2069, 
18.58608,
17.95072,
19.06567,
18.49514,
19.29884,
19.53719,
15.73583,
17.46583,
21.31912,
19.63803,
19.34575,
18.88244,
20.89049,
17.14984,
17.18948,
16.98912,
19.05565,
20.31014,
19.54734,
20.61441,
20.91533,
19.25585,
19.16348,
15.93021,
20.00294,
21.10335,
19.60039,
2070, 
18.54244,
17.9241,
19.07084,
18.49605,
19.29901,
19.55824,
15.712,
17.43696,
21.28676,
19.62416,
19.3041,
18.84551,
20.89246,
17.15211,
17.19799,
16.98318,
19.05499,
20.37162,
19.52623,
20.59084,
20.91877,
19.25423,
19.11646,
15.93238,
20.07737,
20.93068,
19.59323,
2071, 
18.50236,
17.90069,
19.07567,
18.49683,
19.29909,
19.57809,
15.68895,
17.40764,
21.25452,
19.61039,
19.26234,
18.8106,
20.89424,
17.15274,
17.20974,
16.97773,
19.05394,
20.42444,
19.50454,
20.56921,
20.92221,
19.25277,
19.06906,
15.93478,
20.13815,
20.75382,
19.58467,
2072, 
18.46653,
17.88079,
19.08016,
18.49743,
19.29902,
19.59719,
15.66683,
17.37859,
21.22199,
19.59673,
19.22086,
18.77818,
20.89553,
17.15222,
17.22561,
16.97269,
19.0525,
20.46847,
19.48203,
20.5492,
20.92554,
19.25149,
19.02263,
15.93883,
20.18523,
20.57988,
19.57482,
2073, 
18.43488,
17.86412,
19.08433,
18.49791,
19.29869,
19.61502,
15.64585,
17.34966,
21.18751,
19.5828,
19.17956,
18.74796,
20.89621,
17.15056,
17.24483,
16.96782,
19.05074,
20.50514,
19.45854,
20.5302,
20.92866,
19.25035,
18.97784,
15.94381,
20.22067,
20.41682,
19.5637,
2074, 
18.40736,
17.85015,
19.08818,
18.4983,
19.29786,
19.62984,
15.62606,
17.32114,
21.1494,
19.56845,
19.13856,
18.71999,
20.89594,
17.14783,
17.26649,
16.96312,
19.04869,
20.53516,
19.4339,
20.51193,
20.93143,
19.2493,
18.93535,
15.94773,
20.24567,
20.27294,
19.55134,
2075, 
18.38371,
17.83805,
19.09169,
18.49855,
19.29621,
19.63995,
15.6075,
17.29318,
21.10547,
19.55357,
19.09799,
18.69431,
20.89432,
17.14339,
17.28878,
16.95857,
19.04639,
20.55916,
19.40807,
20.49413,
20.93365,
19.24836,
18.89599,
15.95007,
20.26137,
20.14695,
19.53752,
2076, 
18.36433,
17.82714,
19.09487,
18.49852,
19.29342,
19.64558,
15.59039,
17.26606,
21.05605,
19.53795,
19.05796,
18.6708,
20.89088,
17.13871,
17.30957,
16.95412,
19.04387,
20.57802,
19.3812,
20.47683,
20.93513,
19.24751,
18.85839,
15.95075,
20.26994,
20.0367,
19.52238,
2077, 
18.34853,
17.81536,
19.0977,
18.49788,
19.28925,
19.64296,
15.57477,
17.24014,
20.99958,
19.52166,
19.01882,
18.64959,
20.88449,
17.13374,
17.32761,
16.94981,
19.04111,
20.59179,
19.353,
20.45982,
20.93561,
19.24677,
18.82078,
15.94923,
20.2709,
19.9382,
19.50543,
2078, 
18.33584,
17.80156,
19.1002,
18.49583,
19.28354,
19.63136,
15.56088,
17.21504,
20.93567,
19.50425,
18.98047,
18.63034,
20.87335,
17.12941,
17.34136,
16.94545,
19.03814,
20.60155,
19.32376,
20.44314,
20.93506,
19.24621,
18.78348,
15.94527,
20.2653,
19.85117,
19.48666,
2079, 
18.32618,
17.7855,
19.10239,
18.49149,
19.27609,
19.6112,
15.54933,
17.19095,
20.86537,
19.48541,
18.94303,
18.61285,
20.85639,
17.12771,
17.34936,
16.94106,
19.03505,
20.6079,
19.29367,
20.42735,
20.93374,
19.24604,
18.74663,
15.93794,
20.25422,
19.78437,
19.46656,
2080, 
18.3192,
17.76699,
19.10431,
18.48391,
19.26678,
19.58352,
15.5411,
17.16802,
20.7895,
19.46498,
18.90643,
18.59691,
20.83318,
17.13037,
17.35126,
16.93674,
19.03185,
20.61137,
19.26284,
20.41223,
20.93195,
19.24669,
18.7099,
15.92636,
20.23807,
19.72206,
19.44501,
2081, 
18.31506,
17.74603,
19.10605,
18.47173,
19.25557,
19.55045,
15.53697,
17.14631,
20.7094,
19.44314,
18.87085,
18.58236,
20.80474,
17.13821,
17.34921,
16.93266,
19.02771,
20.61263,
19.23167,
20.39752,
20.92967,
19.24853,
18.67438,
15.91232,
20.21791,
19.65067,
19.422,
2082, 
18.3137,
17.72422,
19.1076,
18.45827,
19.24244,
19.51373,
15.54109,
17.1266,
20.62734,
19.42009,
18.83669,
18.56907,
20.77827,
17.1525,
17.34581,
16.93048,
19.0177,
20.61192,
19.20012,
20.38304,
20.92733,
19.25446,
18.64066,
15.89525,
20.19414,
19.57799,
19.39824,
2083, 
18.31454,
17.70341,
19.10903,
18.44531,
19.22735,
19.47673,
15.56026,
17.10989,
20.54474,
19.39569,
18.80392,
18.55682,
20.75074,
17.17237,
17.34726,
16.93363,
19.00474,
20.61013,
19.16885,
20.3687,
20.92474,
19.26798,
18.61217,
15.87576,
20.16716,
19.50949,
19.37492,
2084, 
18.3173,
17.68588,
19.11044,
18.43321,
19.21041,
19.44688,
15.59852,
17.10182,
20.46467,
19.3702,
18.77265,
18.54534,
20.72124,
17.19702,
17.35485,
16.94398,
18.98685,
20.60774,
19.13814,
20.35426,
20.92166,
19.28958,
18.58969,
15.8555,
20.13758,
19.44378,
19.35312,
2085, 
18.32167,
17.67107,
19.11216,
18.4213,
19.19192,
19.4264,
15.65141,
17.10837,
20.39254,
19.34458,
18.74328,
18.53453,
20.69031,
17.22641,
17.36672,
16.95911,
18.96453,
20.60515,
19.10892,
20.3395,
20.91782,
19.3169,
18.5721,
15.8353,
20.10557,
19.37826,
19.33371,
2086, 
18.32698,
17.65911,
19.11731,
18.4097,
19.17466,
19.41323,
15.71687,
17.13936,
20.33674,
19.3256,
18.71562,
18.52413,
20.6585,
17.25939,
17.38384,
16.97834,
18.93789,
20.60282,
19.08185,
20.32411,
20.91313,
19.34927,
18.55938,
15.81539,
20.07142,
19.32126,
19.31845,
2087, 
18.33307,
17.65084,
19.13091,
18.39901,
19.16307,
19.40627,
15.7933,
17.18647,
20.29317,
19.31577,
18.68991,
18.51394,
20.62676,
17.29493,
17.40652,
17.00187,
18.90822,
20.60086,
19.05736,
20.30743,
20.9076,
19.38619,
18.55171,
15.79858,
20.03624,
19.29642,
19.3075,
2088, 
18.33934,
17.64647,
19.15139,
18.38969,
19.15749,
19.4052,
15.87955,
17.24566,
20.25822,
19.31176,
18.66571,
18.50379,
20.59621,
17.33181,
17.43448,
17.02943,
18.89083,
20.5998,
19.03578,
20.2898,
20.90094,
19.42707,
18.54857,
15.80059,
20.00027,
19.30847,
19.30158,
2089, 
18.3454,
17.64564,
19.17676,
18.38245,
19.15541,
19.40962,
15.97348,
17.31585,
20.23111,
19.31248,
18.64289,
18.49353,
20.56764,
17.36816,
17.46687,
17.06059,
18.87614,
20.59982,
19.01713,
20.27073,
20.89275,
19.47083,
18.54905,
15.81032,
19.96389,
19.33407,
19.29906,
2090, 
18.3513,
17.64789,
19.20694,
18.37801,
19.15645,
19.41886,
16.07257,
17.39593,
20.21095,
19.31804,
18.62116,
18.48299,
20.54158,
17.40243,
17.50262,
17.09482,
18.86286,
20.60111,
19.00142,
20.25036,
20.88263,
19.51641,
18.5523,
15.8267,
19.92786,
19.37924,
19.2998,
2091, 
18.35722,
17.65307,
19.24136,
18.37748,
19.15049,
19.43218,
16.17493,
17.48411,
20.19606,
19.32718,
18.60047,
18.4721,
20.51752,
17.43444,
17.54064,
17.13166,
18.85236,
20.60377,
18.98874,
20.22909,
20.87051,
19.56298,
18.55761,
15.84123,
19.89295,
19.45308,
19.30367,
2092, 
18.36294,
17.65949,
19.27971,
18.37808,
19.14224,
19.44821,
16.27557,
17.57729,
20.18505,
19.33837,
18.58074,
18.46064,
20.48978,
17.4625,
17.57815,
17.16923,
18.84895,
20.60765,
18.97858,
20.20621,
20.85608,
19.6077,
18.56356,
15.85852,
19.85929,
19.54766,
19.30997,
2093, 
18.3685,
17.66527,
19.32118,
18.37826,
19.13223,
19.46523,
16.36853,
17.67324,
20.17598,
19.34706,
18.56152,
18.44861,
20.46082,
17.48713,
17.61083,
17.20449,
18.84912,
20.61278,
18.9711,
20.18269,
20.83928,
19.64768,
18.56757,
15.8788,
19.82684,
19.65489,
19.31742,
2094, 
18.37416,
17.66864,
19.36446,
18.37773,
19.11967,
19.47795,
16.44972,
17.76668,
20.1671,
19.34886,
18.54272,
18.43597,
20.43162,
17.50883,
17.63808,
17.23569,
18.85349,
20.61868,
18.96613,
20.15878,
20.82008,
19.68225,
18.56857,
15.90075,
19.79586,
19.77194,
19.32487,
2095, 
18.38019,
17.67039,
19.40901,
18.37706,
19.10422,
19.48489,
16.52186,
17.85213,
20.15594,
19.34541,
18.52428,
18.42271,
20.40183,
17.52783,
17.66216,
17.26468,
18.86089,
20.62495,
18.96353,
20.13473,
20.79842,
19.71285,
18.56758,
15.92344,
19.76649,
19.89824,
19.33163,
2096, 
18.38683,
17.67062,
19.45299,
18.37604,
19.08553,
19.48763,
16.5859,
17.92179,
20.13669,
19.33226,
18.5059,
18.4087,
20.37121,
17.54433,
17.68352,
17.29197,
18.87081,
20.63129,
18.96304,
20.1108,
20.77428,
19.73973,
18.56499,
15.94686,
19.73878,
20.02526,
19.33611,
2097, 
18.3943,
17.66939,
19.49198,
18.37449,
19.06682,
19.48693,
16.64173,
17.98035,
20.11267,
19.30867,
18.48777,
18.39391,
20.34016,
17.55853,
17.70203,
17.31714,
18.88211,
20.63727,
18.96449,
20.0865,
20.74778,
19.76284,
18.56042,
15.96926,
19.71319,
20.13452,
19.33829,
2098, 
18.40281,
17.66667,
19.52673,
18.37227,
19.04675,
19.48258,
16.69013,
18.03042,
20.08482,
19.27828,
18.46949,
18.37842,
20.30901,
17.57085,
17.71807,
17.34069,
18.88131,
20.64261,
18.9677,
20.0627,
20.71889,
19.78254,
18.55369,
15.97827,
19.68983,
20.21975,
19.33722,
2099, 
18.41258,
17.66269,
19.55866,
18.36949,
19.02625,
19.47485,
16.73204,
18.072,
20.05305,
19.24466,
18.45103,
18.36229,
20.27825,
17.58159,
17.73217,
17.36311,
18.87645,
20.64695,
18.97243,
20.0395,
20.68791,
19.79928,
18.54507,
15.98263,
19.66894,
20.29125,
19.33387,
2100, 
18.42378,
17.65771,
19.58759,
18.36624,
19.00619,
19.46444,
16.76864,
18.10548,
20.01742,
19.20916,
18.43215,
18.34554,
20.24828,
17.59109,
17.74489,
17.38494,
18.86843,
20.64998,
18.97812,
20.01701,
20.65545,
19.81354,
18.5348,
15.98439,
19.65067,
20.35012,
19.32844];
