real main.em.dem.neu.SecBioEff_Agr[27,2](t) = [1971, 
0.3896255,
0.812571,
0.3896255,
0.812571,
0.3896255,
0.812571,
0.3896255,
0.812571,
0.3896255,
0.812571,
0.3896255,
0.812571,
0.3896255,
0.812571,
0.3896255,
0.812571,
0.3896255,
0.812571,
0.3896255,
0.812571,
0.3896255,
0.812571,
0.3896255,
0.812571,
0.3896255,
0.812571,
0.3896255,
0.812571,
0.3896255,
0.812571,
0.3896255,
0.812571,
0.3896255,
0.812571,
0.3896255,
0.812571,
0.3896255,
0.812571,
0.3896255,
0.812571,
0.3896255,
0.812571,
0.3896255,
0.812571,
0.3896255,
0.812571,
0.3896255,
0.812571,
0.3896255,
0.812571,
0.3896255,
0.812571,
0.3896255,
0.812571,
1972, 
0.3917186,
0.8151425,
0.3917186,
0.8151425,
0.3917186,
0.8151425,
0.3917186,
0.8151425,
0.3917186,
0.8151425,
0.3917186,
0.8151425,
0.3917186,
0.8151425,
0.3917186,
0.8151425,
0.3917186,
0.8151425,
0.3917186,
0.8151425,
0.3917186,
0.8151425,
0.3917186,
0.8151425,
0.3917186,
0.8151425,
0.3917186,
0.8151425,
0.3917186,
0.8151425,
0.3917186,
0.8151425,
0.3917186,
0.8151425,
0.3917186,
0.8151425,
0.3917186,
0.8151425,
0.3917186,
0.8151425,
0.3917186,
0.8151425,
0.3917186,
0.8151425,
0.3917186,
0.8151425,
0.3917186,
0.8151425,
0.3917186,
0.8151425,
0.3917186,
0.8151425,
0.3917186,
0.8151425,
1973, 
0.4533377,
0.8177139,
0.3938117,
0.8177139,
0.3938117,
0.8177139,
0.4533377,
0.8177139,
0.4533377,
0.8177139,
0.4535002,
0.8177139,
0.4529655,
0.8177139,
0.4529655,
0.8177139,
0.4497503,
0.8177139,
0.3938117,
0.8177139,
0.4529655,
0.8177139,
0.4529655,
0.8177139,
0.3938117,
0.8177139,
0.4529655,
0.8177139,
0.3938117,
0.8177139,
0.4498063,
0.8177139,
0.3938117,
0.8177139,
0.4497503,
0.8177139,
0.3938117,
0.8177139,
0.3938117,
0.8177139,
0.4496429,
0.8177139,
0.4029345,
0.8177139,
0.3938117,
0.8177139,
0.3938117,
0.8177139,
0.3938117,
0.8177139,
0.3938117,
0.8177139,
0.3938117,
0.8177139,
1974, 
0.4531632,
0.8202853,
0.4743339,
0.8202853,
0.3959048,
0.8202853,
0.4531632,
0.8202853,
0.4531632,
0.8202853,
0.4532682,
0.8202853,
0.4530435,
0.8202853,
0.4530435,
0.8202853,
0.4517473,
0.8202853,
0.3959048,
0.8202853,
0.4530435,
0.8202853,
0.4530435,
0.8202853,
0.3959048,
0.8202853,
0.4530435,
0.8202853,
0.3959048,
0.8202853,
0.4514098,
0.8202853,
0.3959048,
0.8202853,
0.4517473,
0.8202853,
0.3959048,
0.8202853,
0.3959048,
0.8202853,
0.4516243,
0.8202853,
0.4044018,
0.8202853,
0.3959048,
0.8202853,
0.3959048,
0.8202853,
0.3959048,
0.8202853,
0.3959048,
0.8202853,
0.3959048,
0.8202853,
1975, 
0.4531972,
0.8228567,
0.4760873,
0.8228567,
0.3979979,
0.8228567,
0.4531972,
0.8228567,
0.4531972,
0.8228567,
0.4533065,
0.8228567,
0.4530895,
0.8228567,
0.4530895,
0.8228567,
0.4518633,
0.8228567,
0.3979979,
0.8228567,
0.4530895,
0.8228567,
0.4530895,
0.8228567,
0.3979979,
0.8228567,
0.4530895,
0.8228567,
0.3979979,
0.8228567,
0.4515544,
0.8228567,
0.3979979,
0.8228567,
0.4518633,
0.8228567,
0.3979979,
0.8228567,
0.3979979,
0.8228567,
0.4518531,
0.8228567,
0.4058691,
0.8228567,
0.3979979,
0.8228567,
0.3979979,
0.8228567,
0.3979979,
0.8228567,
0.3979979,
0.8228567,
0.3979979,
0.8228567,
1976, 
0.4532514,
0.8254282,
0.4778049,
0.8254282,
0.4000911,
0.8254282,
0.4532514,
0.8254282,
0.4532514,
0.8254282,
0.4533693,
0.8254282,
0.4531368,
0.8254282,
0.4531368,
0.8254282,
0.4519551,
0.8254282,
0.4000911,
0.8254282,
0.4531368,
0.8254282,
0.4531368,
0.8254282,
0.4000911,
0.8254282,
0.4531368,
0.8254282,
0.4000911,
0.8254282,
0.4517221,
0.8254282,
0.4000911,
0.8254282,
0.4519551,
0.8254282,
0.4000911,
0.8254282,
0.4000911,
0.8254282,
0.4519325,
0.8254282,
0.4073363,
0.8254282,
0.4000911,
0.8254282,
0.4000911,
0.8254282,
0.4000911,
0.8254282,
0.4000911,
0.8254282,
0.4000911,
0.8254282,
1977, 
0.4533064,
0.8279997,
0.4795131,
0.8279997,
0.4021842,
0.8279997,
0.4533064,
0.8279997,
0.4533064,
0.8279997,
0.4534346,
0.8279997,
0.4531832,
0.8279997,
0.4531832,
0.8279997,
0.4520219,
0.8279997,
0.4021842,
0.8279997,
0.4531832,
0.8279997,
0.4531832,
0.8279997,
0.4021842,
0.8279997,
0.4531832,
0.8279997,
0.4021842,
0.8279997,
0.4518531,
0.8279997,
0.4021842,
0.8279997,
0.4520219,
0.8279997,
0.4021842,
0.8279997,
0.4021842,
0.8279997,
0.452016,
0.8279997,
0.4088036,
0.8279997,
0.4021842,
0.8279997,
0.4021842,
0.8279997,
0.4021842,
0.8279997,
0.4021842,
0.8279997,
0.4021842,
0.8279997,
1978, 
0.4533548,
0.8305711,
0.4812209,
0.8305711,
0.4042773,
0.8305711,
0.4533548,
0.8305711,
0.4533548,
0.8305711,
0.45349,
0.8305711,
0.4532296,
0.8305711,
0.4532296,
0.8305711,
0.452117,
0.8305711,
0.4042773,
0.8305711,
0.4532296,
0.8305711,
0.4532296,
0.8305711,
0.4042773,
0.8305711,
0.4532296,
0.8305711,
0.4042773,
0.8305711,
0.4519972,
0.8305711,
0.4042773,
0.8305711,
0.452117,
0.8305711,
0.4042773,
0.8305711,
0.4042773,
0.8305711,
0.4521331,
0.8305711,
0.4102709,
0.8305711,
0.4042773,
0.8305711,
0.4042773,
0.8305711,
0.4042773,
0.8305711,
0.4042773,
0.8305711,
0.4042773,
0.8305711,
1979, 
0.4534014,
0.8331425,
0.482928,
0.8331425,
0.4063704,
0.8331425,
0.4534014,
0.8331425,
0.4534014,
0.8331425,
0.4535424,
0.8331425,
0.453276,
0.8331425,
0.453276,
0.8331425,
0.4522106,
0.8331425,
0.4063704,
0.8331425,
0.453276,
0.8331425,
0.453276,
0.8331425,
0.4063704,
0.8331425,
0.453276,
0.8331425,
0.4063704,
0.8331425,
0.4521616,
0.8331425,
0.4063704,
0.8331425,
0.4522106,
0.8331425,
0.4063704,
0.8331425,
0.4063704,
0.8331425,
0.4522544,
0.8331425,
0.4117381,
0.8331425,
0.4063704,
0.8331425,
0.4522544,
0.8331425,
0.4063704,
0.8331425,
0.4063704,
0.8331425,
0.4063704,
0.8331425,
1980, 
0.4534495,
0.835714,
0.4846351,
0.835714,
0.4084635,
0.835714,
0.4534495,
0.835714,
0.4534495,
0.835714,
0.453597,
0.835714,
0.453322,
0.835714,
0.453322,
0.835714,
0.4522712,
0.835714,
0.4084635,
0.835714,
0.453322,
0.835714,
0.453322,
0.835714,
0.4084635,
0.835714,
0.453322,
0.835714,
0.4084635,
0.835714,
0.4521504,
0.835714,
0.4084635,
0.835714,
0.4522712,
0.835714,
0.4084635,
0.835714,
0.4084635,
0.835714,
0.4523627,
0.835714,
0.4132054,
0.835714,
0.4084635,
0.835714,
0.4523627,
0.835714,
0.4084635,
0.835714,
0.4084635,
0.835714,
0.4084635,
0.835714,
1981, 
0.4534991,
0.8382854,
0.4863431,
0.8382854,
0.4105566,
0.8382854,
0.4534991,
0.8382854,
0.4534991,
0.8382854,
0.453654,
0.8382854,
0.4533681,
0.8382854,
0.4533681,
0.8382854,
0.4523586,
0.8382854,
0.4105566,
0.8382854,
0.4533681,
0.8382854,
0.4533681,
0.8382854,
0.4105566,
0.8382854,
0.4533681,
0.8382854,
0.4105566,
0.8382854,
0.4522408,
0.8382854,
0.4105566,
0.8382854,
0.4523586,
0.8382854,
0.4105566,
0.8382854,
0.4105566,
0.8382854,
0.4524563,
0.8382854,
0.4146726,
0.8382854,
0.4105566,
0.8382854,
0.4524563,
0.8382854,
0.4105566,
0.8382854,
0.4105566,
0.8382854,
0.4105566,
0.8382854,
1982, 
0.4535528,
0.8408569,
0.4880507,
0.8408569,
0.4126497,
0.8408569,
0.4535528,
0.8408569,
0.4535528,
0.8408569,
0.453715,
0.8408569,
0.4534147,
0.8408569,
0.4534147,
0.8408569,
0.4524442,
0.8408569,
0.4126497,
0.8408569,
0.4534147,
0.8408569,
0.4534147,
0.8408569,
0.4126497,
0.8408569,
0.4534147,
0.8408569,
0.4126497,
0.8408569,
0.4523178,
0.8408569,
0.4126497,
0.8408569,
0.4524442,
0.8408569,
0.4126497,
0.8408569,
0.4126497,
0.8408569,
0.4525358,
0.8408569,
0.4161399,
0.8408569,
0.4126497,
0.8408569,
0.4525358,
0.8408569,
0.4126497,
0.8408569,
0.4126497,
0.8408569,
0.4126497,
0.8408569,
1983, 
0.453607,
0.8434283,
0.4897602,
0.8434283,
0.4147429,
0.8434283,
0.453607,
0.8434283,
0.453607,
0.8434283,
0.4537787,
0.8434283,
0.4534613,
0.8434283,
0.4534613,
0.8434283,
0.4525191,
0.8434283,
0.4147429,
0.8434283,
0.4534613,
0.8434283,
0.4534613,
0.8434283,
0.4147429,
0.8434283,
0.4534613,
0.8434283,
0.4147429,
0.8434283,
0.4524163,
0.8434283,
0.4147429,
0.8434283,
0.4525191,
0.8434283,
0.4147429,
0.8434283,
0.4147429,
0.8434283,
0.4526127,
0.8434283,
0.4176072,
0.8434283,
0.4147429,
0.8434283,
0.4526127,
0.8434283,
0.4525191,
0.8434283,
0.4147429,
0.8434283,
0.4147429,
0.8434283,
1984, 
0.4536533,
0.8459997,
0.4914665,
0.8459997,
0.4168359,
0.8459997,
0.4536533,
0.8459997,
0.4536533,
0.8459997,
0.4538299,
0.8459997,
0.4535078,
0.8459997,
0.4535078,
0.8459997,
0.4526244,
0.8459997,
0.4168359,
0.8459997,
0.4535078,
0.8459997,
0.4535078,
0.8459997,
0.4168359,
0.8459997,
0.4535078,
0.8459997,
0.4168359,
0.8459997,
0.4525544,
0.8459997,
0.4168359,
0.8459997,
0.4526244,
0.8459997,
0.4168359,
0.8459997,
0.4168359,
0.8459997,
0.4527132,
0.8459997,
0.4190744,
0.8459997,
0.4168359,
0.8459997,
0.4527132,
0.8459997,
0.4526244,
0.8459997,
0.4168359,
0.8459997,
0.4168359,
0.8459997,
1985, 
0.453698,
0.8485712,
0.4931703,
0.8485712,
0.418929,
0.8485712,
0.453698,
0.8485712,
0.453698,
0.8485712,
0.4538795,
0.8485712,
0.4535545,
0.8485712,
0.4535545,
0.8485712,
0.4527136,
0.8485712,
0.418929,
0.8485712,
0.4535545,
0.8485712,
0.4535545,
0.8485712,
0.418929,
0.8485712,
0.4535545,
0.8485712,
0.418929,
0.8485712,
0.4526814,
0.8485712,
0.418929,
0.8485712,
0.4527136,
0.8485712,
0.418929,
0.8485712,
0.418929,
0.8485712,
0.4528106,
0.8485712,
0.4205417,
0.8485712,
0.418929,
0.8485712,
0.4528106,
0.8485712,
0.4527136,
0.8485712,
0.418929,
0.8485712,
0.418929,
0.8485712,
1986, 
0.4537401,
0.8511426,
0.4948754,
0.8511426,
0.4210221,
0.8511426,
0.4537401,
0.8511426,
0.4537401,
0.8511426,
0.4539236,
0.8511426,
0.4536009,
0.8511426,
0.4536009,
0.8511426,
0.4528101,
0.8511426,
0.4210221,
0.8511426,
0.4536009,
0.8511426,
0.4536009,
0.8511426,
0.4210221,
0.8511426,
0.4536009,
0.8511426,
0.4210221,
0.8511426,
0.4528163,
0.8511426,
0.4528101,
0.8511426,
0.4528101,
0.8511426,
0.4210221,
0.8511426,
0.4927378,
0.8511426,
0.4529082,
0.8511426,
0.422009,
0.8511426,
0.4529082,
0.8511426,
0.4529082,
0.8511426,
0.4528101,
0.8511426,
0.4210221,
0.8511426,
0.4210221,
0.8511426,
1987, 
0.4537851,
0.853714,
0.496581,
0.853714,
0.4231153,
0.853714,
0.4537851,
0.853714,
0.4537851,
0.853714,
0.4539752,
0.853714,
0.4536484,
0.853714,
0.4536484,
0.853714,
0.4529032,
0.853714,
0.4231153,
0.853714,
0.4536484,
0.853714,
0.4536484,
0.853714,
0.4231153,
0.853714,
0.4536484,
0.853714,
0.4231153,
0.853714,
0.4529286,
0.853714,
0.4530441,
0.853714,
0.4529032,
0.853714,
0.4231153,
0.853714,
0.4944101,
0.853714,
0.4529965,
0.853714,
0.4234762,
0.853714,
0.4529965,
0.853714,
0.4529965,
0.853714,
0.4529032,
0.853714,
0.4231153,
0.853714,
0.4231153,
0.853714,
1988, 
0.4538262,
0.8562855,
0.4982865,
0.8562855,
0.4252084,
0.8562855,
0.4538262,
0.8562855,
0.4538262,
0.8562855,
0.4540169,
0.8562855,
0.4536949,
0.8562855,
0.4536949,
0.8562855,
0.452999,
0.8562855,
0.4252084,
0.8562855,
0.4536949,
0.8562855,
0.4536949,
0.8562855,
0.4252084,
0.8562855,
0.4536949,
0.8562855,
0.4252084,
0.8562855,
0.4531471,
0.8562855,
0.4532264,
0.8562855,
0.452999,
0.8562855,
0.4252084,
0.8562855,
0.4960713,
0.8562855,
0.4531029,
0.8562855,
0.4249435,
0.8562855,
0.4531029,
0.8562855,
0.4531029,
0.8562855,
0.452999,
0.8562855,
0.4252084,
0.8562855,
0.4252084,
0.8562855,
1989, 
0.4538779,
0.8588569,
0.4999907,
0.8588569,
0.4273015,
0.8588569,
0.4538779,
0.8588569,
0.4538779,
0.8588569,
0.4540766,
0.8588569,
0.4537414,
0.8588569,
0.4537414,
0.8588569,
0.4531024,
0.8588569,
0.4273015,
0.8588569,
0.4537414,
0.8588569,
0.4537414,
0.8588569,
0.4521692,
0.8588569,
0.4537414,
0.8588569,
0.4273015,
0.8588569,
0.4533206,
0.8588569,
0.453427,
0.8588569,
0.4531024,
0.8588569,
0.4273015,
0.8588569,
0.4977412,
0.8588569,
0.4532039,
0.8588569,
0.4264108,
0.8588569,
0.4532039,
0.8588569,
0.4532039,
0.8588569,
0.4531024,
0.8588569,
0.4273015,
0.8588569,
0.4273015,
0.8588569,
1990, 
0.4539292,
0.8614284,
0.5016949,
0.8614284,
0.4293946,
0.8614284,
0.4539292,
0.8614284,
0.4539292,
0.8614284,
0.454137,
0.8614284,
0.4537879,
0.8614284,
0.4537879,
0.8614284,
0.453199,
0.8614284,
0.4293946,
0.8614284,
0.4537879,
0.8614284,
0.4537879,
0.8614284,
0.4522691,
0.8614284,
0.4537879,
0.8614284,
0.4293946,
0.8614284,
0.4534684,
0.8614284,
0.4535442,
0.8614284,
0.453199,
0.8614284,
0.4293946,
0.8614284,
0.4994356,
0.8614284,
0.4532806,
0.8614284,
0.427878,
0.8614284,
0.4532806,
0.8614284,
0.4532806,
0.8614284,
0.453199,
0.8614284,
0.4293946,
0.8614284,
0.4293946,
0.8614284,
1991, 
0.4539796,
0.8639998,
0.503401,
0.8639998,
0.4314878,
0.8639998,
0.4539796,
0.8639998,
0.4539796,
0.8639998,
0.4541939,
0.8639998,
0.4538342,
0.8639998,
0.4538589,
0.8639998,
0.4533077,
0.8639998,
0.4314878,
0.8639998,
0.4538342,
0.8639998,
0.4538342,
0.8639998,
0.4526449,
0.8639998,
0.4538342,
0.8639998,
0.4314878,
0.8639998,
0.453515,
0.8639998,
0.4535484,
0.8639998,
0.4533077,
0.8639998,
0.4533573,
0.8639998,
0.5011322,
0.8639998,
0.4533573,
0.8639998,
0.4293453,
0.8639998,
0.4533573,
0.8639998,
0.4533573,
0.8639998,
0.4533077,
0.8639998,
0.4314878,
0.8639998,
0.4314878,
0.8639998,
1992, 
0.4540137,
0.8665712,
0.5051128,
0.8665712,
0.4335809,
0.8665712,
0.4540137,
0.8665712,
0.4540137,
0.8665712,
0.45421,
0.8665712,
0.4538808,
0.8665712,
0.4539105,
0.8665712,
0.453408,
0.8665712,
0.4335809,
0.8665712,
0.4538808,
0.8665712,
0.4538808,
0.8665712,
0.4528471,
0.8665712,
0.4538808,
0.8665712,
0.4335809,
0.8665712,
0.4535584,
0.8665712,
0.4535787,
0.8665712,
0.453408,
0.8665712,
0.4534754,
0.8665712,
0.5027961,
0.8665712,
0.4534754,
0.8665712,
0.4308126,
0.8665712,
0.4534754,
0.8665712,
0.4534754,
0.8665712,
0.453408,
0.8665712,
0.4335809,
0.8665712,
0.4335809,
0.8665712,
1993, 
0.4540624,
0.8691427,
0.5068202,
0.8691427,
0.435674,
0.8691427,
0.4540624,
0.8691427,
0.4540624,
0.8691427,
0.4540744,
0.8691427,
0.4539272,
0.8691427,
0.4539631,
0.8691427,
0.4534909,
0.8691427,
0.435674,
0.8691427,
0.4539272,
0.8691427,
0.4539272,
0.8691427,
0.4529671,
0.8691427,
0.4539272,
0.8691427,
0.435674,
0.8691427,
0.4535934,
0.8691427,
0.4536121,
0.8691427,
0.4534909,
0.8691427,
0.4535509,
0.8691427,
0.504442,
0.8691427,
0.4535509,
0.8691427,
0.4322798,
0.8691427,
0.4535509,
0.8691427,
0.4535509,
0.8691427,
0.4534909,
0.8691427,
0.435674,
0.8691427,
0.435674,
0.8691427,
1994, 
0.4541114,
0.8717141,
0.5085281,
0.8717141,
0.4377671,
0.8717141,
0.4541114,
0.8717141,
0.4541114,
0.8717141,
0.4540974,
0.8717141,
0.4539738,
0.8717141,
0.4540174,
0.8717141,
0.4535707,
0.8717141,
0.4377671,
0.8717141,
0.4539738,
0.8717141,
0.4539738,
0.8717141,
0.4530858,
0.8717141,
0.4539738,
0.8717141,
0.4377671,
0.8717141,
0.4536383,
0.8717141,
0.4536589,
0.8717141,
0.4535707,
0.8717141,
0.4536258,
0.8717141,
0.5060865,
0.8717141,
0.4536258,
0.8717141,
0.4337471,
0.8717141,
0.4536258,
0.8717141,
0.4536258,
0.8717141,
0.4535707,
0.8717141,
0.4377671,
0.8717141,
0.4377671,
0.8717141,
1995, 
0.454164,
0.8742856,
0.4808188,
0.8742856,
0.4398602,
0.8742856,
0.454164,
0.8742856,
0.454164,
0.8742856,
0.4541218,
0.8742856,
0.4540203,
0.8742856,
0.454074,
0.8742856,
0.4536543,
0.8742856,
0.4398602,
0.8742856,
0.4540203,
0.8742856,
0.4540203,
0.8742856,
0.4532244,
0.8742856,
0.4540203,
0.8742856,
0.4398602,
0.8742856,
0.4536982,
0.8742856,
0.4537157,
0.8742856,
0.4536543,
0.8742856,
0.4537038,
0.8742856,
0.5078617,
0.8742856,
0.4537038,
0.8742856,
0.4352144,
0.8742856,
0.4537038,
0.8742856,
0.4537038,
0.8742856,
0.4536543,
0.8742856,
0.4398602,
0.8742856,
0.4398602,
0.8742856,
1996, 
0.4542058,
0.876857,
0.4778787,
0.876857,
0.4419533,
0.876857,
0.4542058,
0.876857,
0.4542058,
0.876857,
0.4541378,
0.876857,
0.454067,
0.876857,
0.4541278,
0.876857,
0.453748,
0.876857,
0.4419533,
0.876857,
0.454067,
0.876857,
0.454067,
0.876857,
0.4534126,
0.876857,
0.454067,
0.876857,
0.4419533,
0.876857,
0.4537865,
0.876857,
0.4537914,
0.876857,
0.453748,
0.876857,
0.4537974,
0.876857,
0.5097325,
0.876857,
0.4537974,
0.876857,
0.4366816,
0.876857,
0.4537974,
0.876857,
0.4537974,
0.876857,
0.453748,
0.876857,
0.4419533,
0.876857,
0.4419533,
0.876857,
1997, 
0.454253,
0.8794284,
0.4768446,
0.8794284,
0.4440464,
0.8794284,
0.454253,
0.8794284,
0.454253,
0.8794284,
0.4541964,
0.8794284,
0.4541134,
0.8794284,
0.4541833,
0.8794284,
0.4538268,
0.8794284,
0.4440464,
0.8794284,
0.4541134,
0.8794284,
0.4541134,
0.8794284,
0.4537389,
0.8794284,
0.4541134,
0.8794284,
0.4440464,
0.8794284,
0.4539446,
0.8794284,
0.4538577,
0.8794284,
0.4538268,
0.8794284,
0.4538664,
0.8794284,
0.5113694,
0.8794284,
0.4538664,
0.8794284,
0.4381489,
0.8794284,
0.4538664,
0.8794284,
0.4538664,
0.8794284,
0.4538268,
0.8794284,
0.4440464,
0.8794284,
0.4440464,
0.8794284,
1998, 
0.4543001,
0.8819999,
0.4750009,
0.8819999,
0.4461395,
0.8819999,
0.4543001,
0.8819999,
0.4543001,
0.8819999,
0.454158,
0.8819999,
0.4541599,
0.8819999,
0.4542395,
0.8819999,
0.4539061,
0.8819999,
0.4461395,
0.8819999,
0.4541599,
0.8819999,
0.4541599,
0.8819999,
0.4561914,
0.8819999,
0.4541599,
0.8819999,
0.4461395,
0.8819999,
0.4551142,
0.8819999,
0.4539278,
0.8819999,
0.4539061,
0.8819999,
0.4539355,
0.8819999,
0.513009,
0.8819999,
0.4539355,
0.8819999,
0.4396161,
0.8819999,
0.4539355,
0.8819999,
0.4539355,
0.8819999,
0.4539061,
0.8819999,
0.4461395,
0.8819999,
0.4461395,
0.8819999,
1999, 
0.4543462,
0.8845713,
0.4736273,
0.8845713,
0.4482326,
0.8845713,
0.4543462,
0.8845713,
0.4543462,
0.8845713,
0.4542047,
0.8845713,
0.4542065,
0.8845713,
0.4542913,
0.8845713,
0.4539825,
0.8845713,
0.4482326,
0.8845713,
0.4542065,
0.8845713,
0.4542065,
0.8845713,
0.4590332,
0.8845713,
0.4542065,
0.8845713,
0.4482326,
0.8845713,
0.4567662,
0.8845713,
0.4539982,
0.8845713,
0.4539825,
0.8845713,
0.454001,
0.8845713,
0.5146602,
0.8845713,
0.454001,
0.8845713,
0.4410834,
0.8845713,
0.454001,
0.8845713,
0.454001,
0.8845713,
0.4539825,
0.8845713,
0.4482326,
0.8845713,
0.4482326,
0.8845713,
2000, 
0.4543946,
0.8871428,
0.4726641,
0.8871428,
0.4503258,
0.8871428,
0.4543946,
0.8871428,
0.4543946,
0.8871428,
0.4542514,
0.8871428,
0.4542531,
0.8871428,
0.4543471,
0.8871428,
0.4540551,
0.8871428,
0.4503258,
0.8871428,
0.4542531,
0.8871428,
0.4542531,
0.8871428,
0.4614655,
0.8871428,
0.4542531,
0.8871428,
0.4503258,
0.8871428,
0.4583788,
0.8871428,
0.4540663,
0.8871428,
0.4540551,
0.8871428,
0.4540696,
0.8871428,
0.5163056,
0.8871428,
0.4540696,
0.8871428,
0.4425507,
0.8871428,
0.4540696,
0.8871428,
0.4540696,
0.8871428,
0.4540551,
0.8871428,
0.4503258,
0.8871428,
0.4503258,
0.8871428,
2001, 
0.4544431,
0.8897142,
0.4716818,
0.8897142,
0.4524188,
0.8897142,
0.4544431,
0.8897142,
0.4544431,
0.8897142,
0.454298,
0.8897142,
0.4542996,
0.8897142,
0.4544041,
0.8897142,
0.4541259,
0.8897142,
0.4524188,
0.8897142,
0.4542996,
0.8897142,
0.4542996,
0.8897142,
0.4683707,
0.8897142,
0.4542996,
0.8897142,
0.4524188,
0.8897142,
0.4629509,
0.8897142,
0.4541337,
0.8897142,
0.4541259,
0.8897142,
0.4541403,
0.8897142,
0.4775459,
0.8897142,
0.4541403,
0.8897142,
0.4440179,
0.8897142,
0.4541403,
0.8897142,
0.4541403,
0.8897142,
0.4541259,
0.8897142,
0.4524188,
0.8897142,
0.4524188,
0.8897142,
2002, 
0.4544936,
0.8922856,
0.4711109,
0.8922856,
0.454512,
0.8922856,
0.4544936,
0.8922856,
0.4544936,
0.8922856,
0.4544916,
0.8922856,
0.4543482,
0.8922856,
0.454462,
0.8922856,
0.4541973,
0.8922856,
0.454512,
0.8922856,
0.4543482,
0.8922856,
0.4543482,
0.8922856,
0.4651717,
0.8922856,
0.4559552,
0.8922856,
0.454512,
0.8922856,
0.4617223,
0.8922856,
0.4542027,
0.8922856,
0.4541973,
0.8922856,
0.4542049,
0.8922856,
0.4555975,
0.8922856,
0.4542049,
0.8922856,
0.4454852,
0.8922856,
0.4542049,
0.8922856,
0.4542049,
0.8922856,
0.4541973,
0.8922856,
0.454512,
0.8922856,
0.454512,
0.8922856,
2003, 
0.4545425,
0.8948571,
0.4676225,
0.8948571,
0.4566051,
0.8948571,
0.4545425,
0.8948571,
0.4545425,
0.8948571,
0.4546669,
0.8948571,
0.4543997,
0.8948571,
0.4545166,
0.8948571,
0.4542676,
0.8948571,
0.4566051,
0.8948571,
0.4543997,
0.8948571,
0.4545514,
0.8948571,
0.4644579,
0.8948571,
0.4576651,
0.8948571,
0.4566051,
0.8948571,
0.4598212,
0.8948571,
0.4542715,
0.8948571,
0.4542676,
0.8948571,
0.4542729,
0.8948571,
0.4640207,
0.8948571,
0.4542729,
0.8948571,
0.4469525,
0.8948571,
0.4542729,
0.8948571,
0.4542729,
0.8948571,
0.4542676,
0.8948571,
0.4566051,
0.8948571,
0.4566051,
0.8948571,
2004, 
0.4545858,
0.8974285,
0.4645654,
0.8974285,
0.4586982,
0.8974285,
0.4545858,
0.8974285,
0.4545858,
0.8974285,
0.4547711,
0.8974285,
0.4544847,
0.8974285,
0.4545669,
0.8974285,
0.4543404,
0.8974285,
0.4586982,
0.8974285,
0.4544552,
0.8974285,
0.4549016,
0.8974285,
0.4686691,
0.8974285,
0.4612307,
0.8974285,
0.4586982,
0.8974285,
0.4606551,
0.8974285,
0.4543431,
0.8974285,
0.4543404,
0.8974285,
0.454345,
0.8974285,
0.47109,
0.8974285,
0.454345,
0.8974285,
0.4484197,
0.8974285,
0.454345,
0.8974285,
0.454345,
0.8974285,
0.4543404,
0.8974285,
0.4586982,
0.8974285,
0.4586982,
0.8974285,
2005, 
0.4546317,
0.9,
0.4624796,
0.9,
0.4607913,
0.9,
0.4546317,
0.9,
0.4546317,
0.9,
0.4548518,
0.9,
0.4545649,
0.9,
0.4546176,
0.9,
0.454411,
0.9,
0.4607913,
0.9,
0.4545116,
0.9,
0.4553102,
0.9,
0.4715478,
0.9,
0.4644812,
0.9,
0.4607913,
0.9,
0.4605897,
0.9,
0.4544129,
0.9,
0.454411,
0.9,
0.454415,
0.9,
0.4755392,
0.9,
0.454415,
0.9,
0.449887,
0.9,
0.454415,
0.9,
0.454415,
0.9,
0.454411,
0.9,
0.4607913,
0.9,
0.4607913,
0.9,
2006, 
0.4546257,
0.9,
0.46074,
0.9,
0.4607913,
0.9,
0.4546257,
0.9,
0.4546257,
0.9,
0.4548655,
0.9,
0.4545833,
0.9,
0.4546169,
0.9,
0.4570816,
0.9,
0.5228807,
0.9,
0.4545324,
0.9,
0.4552334,
0.9,
0.4689465,
0.9,
0.4642601,
0.9,
0.4607913,
0.9,
0.4565311,
0.9,
0.4544149,
0.9,
0.4544136,
0.9,
0.4544159,
0.9,
0.4779043,
0.9,
0.4544159,
0.9,
0.449887,
0.9,
0.4544159,
0.9,
0.4544159,
0.9,
0.4544136,
0.9,
0.4607913,
0.9,
0.4607913,
0.9,
2007, 
0.4546146,
0.9,
0.4594755,
0.9,
0.4607913,
0.9,
0.4546146,
0.9,
0.4546146,
0.9,
0.4548459,
0.9,
0.4545998,
0.9,
0.4546116,
0.9,
0.4629628,
0.9,
0.5228535,
0.9,
0.4545743,
0.9,
0.4551878,
0.9,
0.4683779,
0.9,
0.4649973,
0.9,
0.4607913,
0.9,
0.4560457,
0.9,
0.4544212,
0.9,
0.4544199,
0.9,
0.4544197,
0.9,
0.4767933,
0.9,
0.4544197,
0.9,
0.449887,
0.9,
0.4544197,
0.9,
0.4544197,
0.9,
0.4544199,
0.9,
0.4607913,
0.9,
0.4607913,
0.9,
2008, 
0.454606,
0.9,
0.4584588,
0.9,
0.4607913,
0.9,
0.454606,
0.9,
0.454606,
0.9,
0.4548368,
0.9,
0.4546205,
0.9,
0.4546089,
0.9,
0.4664953,
0.9,
0.5229068,
0.9,
0.4546557,
0.9,
0.4552197,
0.9,
0.4667937,
0.9,
0.4644704,
0.9,
0.4607913,
0.9,
0.4555664,
0.9,
0.4544284,
0.9,
0.454427,
0.9,
0.4544227,
0.9,
0.4758255,
0.9,
0.4544227,
0.9,
0.449887,
0.9,
0.4544227,
0.9,
0.4544227,
0.9,
0.454427,
0.9,
0.4607913,
0.9,
0.4607913,
0.9,
2009, 
0.4545922,
0.9,
0.457652,
0.9,
0.4607913,
0.9,
0.4545922,
0.9,
0.4545922,
0.9,
0.4548071,
0.9,
0.4546387,
0.9,
0.4546013,
0.9,
0.4696813,
0.9,
0.522881,
0.9,
0.4547839,
0.9,
0.4551189,
0.9,
0.4639272,
0.9,
0.4625514,
0.9,
0.4607913,
0.9,
0.4551436,
0.9,
0.4544331,
0.9,
0.4544313,
0.9,
0.4544273,
0.9,
0.4746917,
0.9,
0.4544273,
0.9,
0.449887,
0.9,
0.4544273,
0.9,
0.4544273,
0.9,
0.4544313,
0.9,
0.4607913,
0.9,
0.4607913,
0.9,
2010, 
0.455673,
0.9,
0.4569918,
0.9,
0.4607913,
0.9,
0.4545844,
0.9,
0.4545844,
0.9,
0.4547794,
0.9,
0.4546622,
0.9,
0.4545994,
0.9,
0.4730455,
0.9,
0.5229468,
0.9,
0.4549329,
0.9,
0.4551362,
0.9,
0.4636103,
0.9,
0.4625996,
0.9,
0.4607913,
0.9,
0.4549677,
0.9,
0.4544383,
0.9,
0.454436,
0.9,
0.4544317,
0.9,
0.4738623,
0.9,
0.4544317,
0.9,
0.449887,
0.9,
0.4544317,
0.9,
0.4544317,
0.9,
0.454436,
0.9,
0.4607913,
0.9,
0.4607913,
0.9,
2011, 
0.4610021,
0.901,
0.4592439,
0.901,
0.4635095,
0.901,
0.4577314,
0.901,
0.4577314,
0.901,
0.4579344,
0.901,
0.4578311,
0.901,
0.45775,
0.901,
0.4793918,
0.901,
0.5251662,
0.901,
0.4582414,
0.901,
0.4583881,
0.901,
0.46837,
0.901,
0.4674534,
0.901,
0.4635095,
0.901,
0.4580789,
0.901,
0.4575887,
0.901,
0.4575861,
0.901,
0.4575799,
0.901,
0.475646,
0.901,
0.4575799,
0.901,
0.4514283,
0.901,
0.4575799,
0.901,
0.4575799,
0.901,
0.4575861,
0.901,
0.4635095,
0.901,
0.4635095,
0.901,
2012, 
0.4655822,
0.902,
0.4620523,
0.902,
0.4662276,
0.902,
0.4608701,
0.902,
0.4608701,
0.902,
0.4610377,
0.902,
0.4609345,
0.902,
0.460882,
0.902,
0.4850881,
0.902,
0.5273821,
0.902,
0.4612628,
0.902,
0.4614122,
0.902,
0.4706849,
0.902,
0.4700041,
0.902,
0.4662276,
0.902,
0.4623323,
0.902,
0.4607563,
0.902,
0.4607545,
0.902,
0.4607424,
0.902,
0.4770446,
0.902,
0.4607424,
0.902,
0.4529696,
0.902,
0.4607424,
0.902,
0.4607424,
0.902,
0.4607545,
0.902,
0.4662276,
0.902,
0.4662276,
0.902,
2013, 
0.4697433,
0.903,
0.4649221,
0.903,
0.4689458,
0.903,
0.4640255,
0.903,
0.4640255,
0.903,
0.4642043,
0.903,
0.464078,
0.903,
0.4640343,
0.903,
0.4877496,
0.903,
0.5296113,
0.903,
0.4643926,
0.903,
0.4644993,
0.903,
0.4735115,
0.903,
0.4729945,
0.903,
0.4638942,
0.903,
0.4680528,
0.903,
0.4638957,
0.903,
0.4638942,
0.903,
0.4638829,
0.903,
0.4800332,
0.903,
0.4638829,
0.903,
0.4545109,
0.903,
0.4638829,
0.903,
0.4638829,
0.903,
0.4638919,
0.903,
0.4689458,
0.903,
0.4689458,
0.903,
2014, 
0.4737171,
0.904,
0.4678853,
0.904,
0.4716639,
0.904,
0.4671763,
0.904,
0.4671763,
0.904,
0.4673414,
0.904,
0.4672132,
0.904,
0.4671826,
0.904,
0.4900705,
0.904,
0.5318832,
0.904,
0.4674871,
0.904,
0.4675318,
0.904,
0.4761597,
0.904,
0.4757728,
0.904,
0.4670536,
0.904,
0.4717511,
0.904,
0.4670546,
0.904,
0.4670536,
0.904,
0.4670362,
0.904,
0.482502,
0.904,
0.4670362,
0.904,
0.4560522,
0.904,
0.4670362,
0.904,
0.4670362,
0.904,
0.4670475,
0.904,
0.4716639,
0.904,
0.4716639,
0.904,
2015, 
0.4750358,
0.9041666,
0.4682567,
0.9041666,
0.4721169,
0.9041666,
0.4676943,
0.9041666,
0.4676943,
0.9041666,
0.467847,
0.9041666,
0.4677196,
0.9041666,
0.4676987,
0.9041666,
0.4902655,
0.9041666,
0.5322497,
0.9041666,
0.4679577,
0.9041666,
0.4680127,
0.9041666,
0.4762549,
0.9041666,
0.4759567,
0.9041666,
0.4675911,
0.9041666,
0.4711354,
0.9041666,
0.4675919,
0.9041666,
0.4675911,
0.9041666,
0.4675732,
0.9041666,
0.4827274,
0.9041666,
0.4675732,
0.9041666,
0.4563091,
0.9041666,
0.4675732,
0.9041666,
0.4675732,
0.9041666,
0.4675861,
0.9041666,
0.4721169,
0.9041666,
0.4721169,
0.9041666,
2016, 
0.4763841,
0.9043333,
0.4686589,
0.9043333,
0.4834193,
0.9043333,
0.4682162,
0.9043333,
0.4682162,
0.9043333,
0.4683585,
0.9043333,
0.4682369,
0.9043333,
0.4682197,
0.9043333,
0.4905584,
0.9043333,
0.5325985,
0.9043333,
0.4684657,
0.9043333,
0.4685268,
0.9043333,
0.4764828,
0.9043333,
0.4762572,
0.9043333,
0.4681148,
0.9043333,
0.470864,
0.9043333,
0.4681154,
0.9043333,
0.4681148,
0.9043333,
0.4681033,
0.9043333,
0.48311,
0.9043333,
0.4681033,
0.9043333,
0.456566,
0.9043333,
0.4681033,
0.9043333,
0.4681033,
0.9043333,
0.46811,
0.9043333,
0.47257,
0.9043333,
0.47257,
0.9043333,
2017, 
0.4776824,
0.9045,
0.4690883,
0.9045,
0.4830805,
0.9045,
0.4687372,
0.9045,
0.4687372,
0.9045,
0.4688656,
0.9045,
0.4687533,
0.9045,
0.46874,
0.9045,
0.4909091,
0.9045,
0.5329314,
0.9045,
0.4689795,
0.9045,
0.4690004,
0.9045,
0.4752923,
0.9045,
0.4751529,
0.9045,
0.4686412,
0.9045,
0.4707591,
0.9045,
0.4686417,
0.9045,
0.4686412,
0.9045,
0.4686308,
0.9045,
0.4833409,
0.9045,
0.4686308,
0.9045,
0.4568229,
0.9045,
0.4686308,
0.9045,
0.4686308,
0.9045,
0.4686353,
0.9045,
0.473023,
0.9045,
0.473023,
0.9045,
2018, 
0.4787147,
0.9046667,
0.4695411,
0.9046667,
0.4838273,
0.9046667,
0.4692606,
0.9046667,
0.4692606,
0.9046667,
0.46939,
0.9046667,
0.4692735,
0.9046667,
0.4692628,
0.9046667,
0.4910378,
0.9046667,
0.5332579,
0.9046667,
0.4694954,
0.9046667,
0.4695196,
0.9046667,
0.4766997,
0.9046667,
0.4765759,
0.9046667,
0.4691669,
0.9046667,
0.4707802,
0.9046667,
0.4691673,
0.9046667,
0.4691669,
0.9046667,
0.4691535,
0.9046667,
0.4835172,
0.9046667,
0.4691535,
0.9046667,
0.4570797,
0.9046667,
0.4691535,
0.9046667,
0.4691535,
0.9046667,
0.4691579,
0.9046667,
0.473476,
0.9046667,
0.473476,
0.9046667,
2019, 
0.4796408,
0.9048333,
0.4700131,
0.9048333,
0.485694,
0.9048333,
0.4697874,
0.9048333,
0.4697874,
0.9048333,
0.4699206,
0.9048333,
0.4697979,
0.9048333,
0.4697891,
0.9048333,
0.4909905,
0.9048333,
0.533584,
0.9048333,
0.4700173,
0.9048333,
0.4700826,
0.9048333,
0.4806154,
0.9048333,
0.4804657,
0.9048333,
0.4696922,
0.9048333,
0.4709581,
0.9048333,
0.4696925,
0.9048333,
0.4696922,
0.9048333,
0.4696717,
0.9048333,
0.4837683,
0.9048333,
0.4696717,
0.9048333,
0.4573366,
0.9048333,
0.4696717,
0.9048333,
0.4696717,
0.9048333,
0.4696769,
0.9048333,
0.4696922,
0.9048333,
0.473929,
0.9048333,
2020, 
0.4804867,
0.905,
0.4704961,
0.905,
0.4863917,
0.905,
0.4703123,
0.905,
0.4703123,
0.905,
0.4704478,
0.905,
0.4703206,
0.905,
0.4703137,
0.905,
0.4907934,
0.905,
0.5339091,
0.905,
0.4705327,
0.905,
0.4706108,
0.905,
0.483551,
0.905,
0.481925,
0.905,
0.4702221,
0.905,
0.4712,
0.905,
0.4702224,
0.905,
0.4702221,
0.905,
0.4701968,
0.905,
0.4837905,
0.905,
0.4701968,
0.905,
0.4575935,
0.905,
0.4701968,
0.905,
0.4701968,
0.905,
0.4702045,
0.905,
0.4702221,
0.905,
0.4743821,
0.905,
2021, 
0.4874394,
0.9055,
0.4720069,
0.9055,
0.5251477,
0.9055,
0.4712658,
0.9055,
0.471101,
0.9055,
0.472024,
0.9055,
0.4812174,
0.9055,
0.4818507,
0.9055,
0.5260463,
0.9055,
0.5309395,
0.9055,
0.4721237,
0.9055,
0.47608,
0.9055,
0.5313966,
0.9055,
0.5238842,
0.9055,
0.5254509,
0.9055,
0.5238966,
0.9055,
0.5239845,
0.9055,
0.5240045,
0.9055,
0.5262973,
0.9055,
0.5013357,
0.9055,
0.5261779,
0.9055,
0.5267405,
0.9055,
0.5263073,
0.9055,
0.5262417,
0.9055,
0.5259972,
0.9055,
0.5255118,
0.9055,
0.4756021,
0.9055,
2022, 
0.4986901,
0.906,
0.4732715,
0.906,
0.5284332,
0.906,
0.4721209,
0.906,
0.4717346,
0.906,
0.4728258,
0.906,
0.4910239,
0.906,
0.4918563,
0.906,
0.5287408,
0.906,
0.533836,
0.906,
0.473372,
0.906,
0.4803125,
0.906,
0.5355673,
0.906,
0.5277296,
0.906,
0.529478,
0.906,
0.5279818,
0.906,
0.5264213,
0.906,
0.5264376,
0.906,
0.5301658,
0.906,
0.5039737,
0.906,
0.529753,
0.906,
0.5308372,
0.906,
0.5301965,
0.906,
0.5298446,
0.906,
0.5297701,
0.906,
0.529342,
0.906,
0.4768222,
0.906,
2023, 
0.5076051,
0.9065,
0.474728,
0.9065,
0.5313685,
0.9065,
0.4730803,
0.9065,
0.4724143,
0.9065,
0.4738312,
0.9065,
0.4994097,
0.9065,
0.5007152,
0.9065,
0.531487,
0.9065,
0.5364097,
0.9065,
0.4742773,
0.9065,
0.4847387,
0.9065,
0.5387692,
0.9065,
0.5309455,
0.9065,
0.5334113,
0.9065,
0.531914,
0.9065,
0.5290266,
0.9065,
0.5290394,
0.9065,
0.533472,
0.9065,
0.5064514,
0.9065,
0.5327863,
0.9065,
0.53412,
0.9065,
0.5335192,
0.9065,
0.5328616,
0.9065,
0.5331953,
0.9065,
0.5329323,
0.9065,
0.4780422,
0.9065,
2024, 
0.5147927,
0.907,
0.4756431,
0.907,
0.5328487,
0.907,
0.4740603,
0.907,
0.4730837,
0.907,
0.4748406,
0.907,
0.5058606,
0.907,
0.5075207,
0.907,
0.5327415,
0.907,
0.5374451,
0.907,
0.475442,
0.907,
0.4886388,
0.907,
0.5403255,
0.907,
0.5328481,
0.907,
0.5357212,
0.907,
0.5341856,
0.907,
0.5302278,
0.907,
0.5302371,
0.907,
0.5351163,
0.907,
0.5084881,
0.907,
0.5341995,
0.907,
0.5357623,
0.907,
0.535233,
0.907,
0.5343249,
0.907,
0.5349748,
0.907,
0.5347946,
0.907,
0.4792623,
0.907,
2025, 
0.5207876,
0.9075,
0.4764716,
0.9075,
0.5346851,
0.9075,
0.4751224,
0.9075,
0.4737968,
0.9075,
0.4759282,
0.9075,
0.5111578,
0.9075,
0.5130938,
0.9075,
0.5338295,
0.9075,
0.5384563,
0.9075,
0.4766717,
0.9075,
0.4921827,
0.9075,
0.5414858,
0.9075,
0.5344235,
0.9075,
0.537576,
0.9075,
0.536051,
0.9075,
0.5311761,
0.9075,
0.5311829,
0.9075,
0.5364283,
0.9075,
0.5103683,
0.9075,
0.5353577,
0.9075,
0.5370734,
0.9075,
0.53664,
0.9075,
0.5354698,
0.9075,
0.5362139,
0.9075,
0.5363644,
0.9075,
0.4804823,
0.9075,
2026, 
0.5259025,
0.908,
0.4775149,
0.908,
0.5356166,
0.908,
0.476287,
0.908,
0.4745549,
0.908,
0.4771305,
0.908,
0.5154423,
0.908,
0.5177565,
0.908,
0.5349228,
0.908,
0.5394072,
0.908,
0.4780061,
0.908,
0.4955525,
0.908,
0.5425094,
0.908,
0.5358979,
0.908,
0.5392261,
0.908,
0.5377423,
0.908,
0.532103,
0.908,
0.5321078,
0.908,
0.5375882,
0.908,
0.5121142,
0.908,
0.5364555,
0.908,
0.5382954,
0.908,
0.5379597,
0.908,
0.5365526,
0.908,
0.537086,
0.908,
0.5377625,
0.908,
0.4817023,
0.908,
2027, 
0.52975,
0.9085,
0.478573,
0.9085,
0.5371056,
0.9085,
0.4775061,
0.9085,
0.4754073,
0.9085,
0.4784881,
0.9085,
0.5184169,
0.9085,
0.5219562,
0.9085,
0.5360843,
0.9085,
0.5399328,
0.9085,
0.4793061,
0.9085,
0.4984291,
0.9085,
0.5428128,
0.9085,
0.5369014,
0.9085,
0.5403594,
0.9085,
0.5391914,
0.9085,
0.5330111,
0.9085,
0.5330147,
0.9085,
0.5389399,
0.9085,
0.5137476,
0.9085,
0.5379176,
0.9085,
0.5398169,
0.9085,
0.5395572,
0.9085,
0.5377827,
0.9085,
0.5379546,
0.9085,
0.5387084,
0.9085,
0.4829224,
0.9085,
2028, 
0.5326207,
0.909,
0.4796604,
0.909,
0.5380021,
0.909,
0.4789174,
0.909,
0.4763072,
0.909,
0.4799124,
0.909,
0.5115252,
0.909,
0.5253438,
0.909,
0.5367856,
0.909,
0.5400104,
0.909,
0.4805626,
0.909,
0.500785,
0.909,
0.5425805,
0.909,
0.5375261,
0.909,
0.5409603,
0.909,
0.5401251,
0.909,
0.5334339,
0.909,
0.5334365,
0.909,
0.5397365,
0.909,
0.5152124,
0.909,
0.538895,
0.909,
0.5407398,
0.909,
0.5405465,
0.909,
0.5385308,
0.909,
0.5382909,
0.909,
0.5390951,
0.909,
0.4841424,
0.909,
2029, 
0.5348175,
0.9095,
0.4807946,
0.9095,
0.5387439,
0.9095,
0.4804792,
0.9095,
0.4772738,
0.9095,
0.4814734,
0.9095,
0.505884,
0.9095,
0.5281876,
0.9095,
0.5372891,
0.9095,
0.5398849,
0.9095,
0.4818047,
0.9095,
0.5027429,
0.9095,
0.5422938,
0.9095,
0.5379871,
0.9095,
0.5412854,
0.9095,
0.5408139,
0.9095,
0.5336973,
0.9095,
0.5336992,
0.9095,
0.5404407,
0.9095,
0.5165625,
0.9095,
0.539674,
0.9095,
0.5414956,
0.9095,
0.5413482,
0.9095,
0.5390774,
0.9095,
0.5384135,
0.9095,
0.5392066,
0.9095,
0.4853625,
0.9095,
2030, 
0.5353209,
0.91,
0.4813975,
0.91,
0.5394198,
0.91,
0.4821989,
0.91,
0.478336,
0.91,
0.4832109,
0.91,
0.5016319,
0.91,
0.5306334,
0.91,
0.5377289,
0.91,
0.5400649,
0.91,
0.4831013,
0.91,
0.5038524,
0.91,
0.5418169,
0.91,
0.5384129,
0.91,
0.5416436,
0.91,
0.541303,
0.91,
0.5336991,
0.91,
0.5337004,
0.91,
0.5409806,
0.91,
0.5178253,
0.91,
0.54029,
0.91,
0.5421941,
0.91,
0.5420748,
0.91,
0.5395475,
0.91,
0.5384668,
0.91,
0.5395149,
0.91,
0.4865825,
0.91,
2031, 
0.5366309,
0.9105,
0.4822991,
0.9105,
0.5399836,
0.9105,
0.4840436,
0.9105,
0.4795302,
0.9105,
0.485102,
0.9105,
0.4984612,
0.9105,
0.5327113,
0.9105,
0.5381923,
0.9105,
0.5407134,
0.9105,
0.4849319,
0.9105,
0.504423,
0.9105,
0.5409163,
0.9105,
0.5386727,
0.9105,
0.5416943,
0.9105,
0.541657,
0.9105,
0.5338702,
0.9105,
0.5338712,
0.9105,
0.5413563,
0.9105,
0.519706,
0.9105,
0.5407681,
0.9105,
0.5427395,
0.9105,
0.5426438,
0.9105,
0.5398783,
0.9105,
0.5383766,
0.9105,
0.5402516,
0.9105,
0.4878026,
0.9105,
2032, 
0.5379547,
0.911,
0.4833868,
0.911,
0.5405558,
0.911,
0.4860649,
0.911,
0.4808399,
0.911,
0.4871493,
0.911,
0.4956297,
0.911,
0.5345573,
0.911,
0.5387715,
0.911,
0.5412591,
0.911,
0.4864774,
0.911,
0.5042906,
0.911,
0.5411634,
0.911,
0.539419,
0.911,
0.5419162,
0.911,
0.542107,
0.911,
0.5341895,
0.911,
0.5341901,
0.911,
0.5417566,
0.911,
0.5219361,
0.911,
0.5412326,
0.911,
0.5432072,
0.911,
0.5431327,
0.911,
0.5403096,
0.911,
0.5387679,
0.911,
0.5408869,
0.911,
0.4890226,
0.911,
2033, 
0.5390374,
0.9115,
0.4846548,
0.9115,
0.5409501,
0.9115,
0.4881177,
0.9115,
0.4823113,
0.9115,
0.489351,
0.9115,
0.4937462,
0.9115,
0.5360417,
0.9115,
0.5392879,
0.9115,
0.5417544,
0.9115,
0.4881285,
0.9115,
0.5035542,
0.9115,
0.5413372,
0.9115,
0.5400519,
0.9115,
0.5421311,
0.9115,
0.5426771,
0.9115,
0.5344834,
0.9115,
0.5344839,
0.9115,
0.5420006,
0.9115,
0.5241872,
0.9115,
0.5415608,
0.9115,
0.5436181,
0.9115,
0.5435576,
0.9115,
0.5406787,
0.9115,
0.5390949,
0.9115,
0.5414562,
0.9115,
0.4902427,
0.9115,
2034, 
0.5399438,
0.912,
0.4862773,
0.912,
0.5411615,
0.912,
0.4907484,
0.912,
0.4839954,
0.912,
0.4918103,
0.912,
0.4923552,
0.912,
0.5372992,
0.912,
0.5397173,
0.912,
0.5422188,
0.912,
0.4899247,
0.912,
0.5026168,
0.912,
0.5415353,
0.912,
0.5408248,
0.912,
0.5422421,
0.912,
0.542931,
0.912,
0.5347274,
0.912,
0.5347278,
0.912,
0.5422468,
0.912,
0.526468,
0.912,
0.5418908,
0.912,
0.5439268,
0.912,
0.5438801,
0.912,
0.5410336,
0.912,
0.5393932,
0.912,
0.5419795,
0.912,
0.4914627,
0.912,
2035, 
0.5407169,
0.9125,
0.4881467,
0.9125,
0.5414315,
0.9125,
0.4935246,
0.9125,
0.4859344,
0.9125,
0.4945556,
0.9125,
0.4920336,
0.9125,
0.5383874,
0.9125,
0.5401356,
0.9125,
0.5427008,
0.9125,
0.4918783,
0.9125,
0.5004879,
0.9125,
0.5417398,
0.9125,
0.5414122,
0.9125,
0.5423488,
0.9125,
0.5435879,
0.9125,
0.5364372,
0.9125,
0.5354334,
0.9125,
0.5424618,
0.9125,
0.528589,
0.9125,
0.5421734,
0.9125,
0.5442767,
0.9125,
0.5442317,
0.9125,
0.5413862,
0.9125,
0.5396731,
0.9125,
0.5426573,
0.9125,
0.4926828,
0.9125,
2036, 
0.5412326,
0.913,
0.4976266,
0.913,
0.5410621,
0.913,
0.4967169,
0.913,
0.4876821,
0.913,
0.493289,
0.913,
0.5051095,
0.913,
0.5392558,
0.913,
0.5404939,
0.913,
0.5430981,
0.913,
0.5036084,
0.913,
0.5099831,
0.913,
0.5436183,
0.913,
0.5415694,
0.913,
0.5422632,
0.913,
0.5437794,
0.913,
0.538614,
0.913,
0.5381838,
0.913,
0.5431452,
0.913,
0.5318248,
0.913,
0.5426692,
0.913,
0.5446143,
0.913,
0.5440983,
0.913,
0.5416987,
0.913,
0.5399962,
0.913,
0.5432344,
0.913,
0.4939028,
0.913,
2037, 
0.5415488,
0.9135,
0.5054386,
0.9135,
0.5414373,
0.9135,
0.502477,
0.9135,
0.4904805,
0.9135,
0.4935693,
0.9135,
0.5152178,
0.9135,
0.5402282,
0.9135,
0.5409136,
0.9135,
0.5435218,
0.9135,
0.5130255,
0.9135,
0.5177717,
0.9135,
0.5436254,
0.9135,
0.541881,
0.9135,
0.5426376,
0.9135,
0.5443339,
0.9135,
0.5400676,
0.9135,
0.539171,
0.9135,
0.543633,
0.9135,
0.5348793,
0.9135,
0.5429842,
0.9135,
0.544884,
0.9135,
0.5440786,
0.9135,
0.5421038,
0.9135,
0.5426592,
0.9135,
0.5437311,
0.9135,
0.4951228,
0.9135,
2038, 
0.5405301,
0.914,
0.5110664,
0.914,
0.5417349,
0.914,
0.50832,
0.914,
0.4933656,
0.914,
0.49466,
0.914,
0.522626,
0.914,
0.5409179,
0.914,
0.541238,
0.914,
0.5438626,
0.914,
0.5201099,
0.914,
0.5237773,
0.914,
0.543819,
0.914,
0.5423159,
0.914,
0.5431038,
0.914,
0.5446151,
0.914,
0.5412291,
0.914,
0.539982,
0.914,
0.5440484,
0.914,
0.5372903,
0.914,
0.5432544,
0.914,
0.5451275,
0.914,
0.5438201,
0.914,
0.5421522,
0.914,
0.5431201,
0.914,
0.5441694,
0.914,
0.4963429,
0.914,
2039, 
0.539885,
0.9145,
0.5150776,
0.9145,
0.5419854,
0.9145,
0.5141102,
0.9145,
0.4965549,
0.9145,
0.4965145,
0.9145,
0.5279946,
0.9145,
0.5415403,
0.9145,
0.5415493,
0.9145,
0.5441723,
0.9145,
0.5257179,
0.9145,
0.5284797,
0.9145,
0.5441847,
0.9145,
0.5425938,
0.9145,
0.5435365,
0.9145,
0.5448388,
0.9145,
0.5422106,
0.9145,
0.5406867,
0.9145,
0.5444306,
0.9145,
0.5390807,
0.9145,
0.5435007,
0.9145,
0.5453553,
0.9145,
0.5436004,
0.9145,
0.5421988,
0.9145,
0.54375,
0.9145,
0.5445759,
0.9145,
0.4975629,
0.9145,
2040, 
0.539566,
0.915,
0.5178761,
0.915,
0.5422259,
0.915,
0.5196272,
0.915,
0.5001465,
0.915,
0.4991166,
0.915,
0.5227712,
0.915,
0.5420598,
0.915,
0.5419258,
0.915,
0.5444687,
0.915,
0.5298182,
0.915,
0.5322059,
0.915,
0.544619,
0.915,
0.5428164,
0.915,
0.5439566,
0.915,
0.5450163,
0.915,
0.5430694,
0.915,
0.5413211,
0.915,
0.5447927,
0.915,
0.5404217,
0.915,
0.543736,
0.915,
0.5455663,
0.915,
0.5435143,
0.915,
0.5423971,
0.915,
0.5443057,
0.915,
0.5449632,
0.915,
0.498783,
0.915,
2041, 
0.539531,
0.9155,
0.5198399,
0.9155,
0.5424824,
0.9155,
0.5246303,
0.9155,
0.5040473,
0.9155,
0.5023461,
0.9155,
0.5201375,
0.9155,
0.5424819,
0.9155,
0.5423446,
0.9155,
0.5447732,
0.9155,
0.5326321,
0.9155,
0.5351816,
0.9155,
0.5435131,
0.9155,
0.5431206,
0.9155,
0.5443833,
0.9155,
0.5452117,
0.9155,
0.5438408,
0.9155,
0.5419191,
0.9155,
0.545164,
0.9155,
0.5414913,
0.9155,
0.5439811,
0.9155,
0.545781,
0.9155,
0.5435531,
0.9155,
0.5426847,
0.9155,
0.5448242,
0.9155,
0.5453557,
0.9155,
0.500003,
0.9155,
2042, 
0.5398551,
0.916,
0.5216883,
0.916,
0.5428004,
0.916,
0.5290019,
0.916,
0.5080297,
0.916,
0.5059549,
0.916,
0.5194873,
0.916,
0.5429463,
0.916,
0.5427541,
0.916,
0.5451031,
0.916,
0.5346812,
0.916,
0.5375885,
0.916,
0.5434061,
0.916,
0.5435764,
0.916,
0.5448259,
0.916,
0.5455558,
0.916,
0.5445374,
0.916,
0.5425037,
0.916,
0.5455346,
0.916,
0.5423593,
0.916,
0.5440882,
0.916,
0.5459611,
0.916,
0.5436904,
0.916,
0.5430375,
0.916,
0.5452868,
0.916,
0.5457478,
0.916,
0.5012231,
0.916,
2043, 
0.5403504,
0.9165,
0.5236192,
0.9165,
0.5431211,
0.9165,
0.5322737,
0.9165,
0.5120765,
0.9165,
0.5098415,
0.9165,
0.5201508,
0.9165,
0.5433971,
0.9165,
0.5431581,
0.9165,
0.5454348,
0.9165,
0.5370106,
0.9165,
0.5394791,
0.9165,
0.5407552,
0.9165,
0.5440544,
0.9165,
0.5452823,
0.9165,
0.54552,
0.9165,
0.5451834,
0.9165,
0.543107,
0.9165,
0.5458707,
0.9165,
0.5431646,
0.9165,
0.5443513,
0.9165,
0.5462171,
0.9165,
0.5439205,
0.9165,
0.5434225,
0.9165,
0.5457404,
0.9165,
0.5461427,
0.9165,
0.5024431,
0.9165,
2044, 
0.5415475,
0.917,
0.5259449,
0.917,
0.5434787,
0.917,
0.5345507,
0.917,
0.5163791,
0.917,
0.5189399,
0.917,
0.5244322,
0.917,
0.5437534,
0.917,
0.543531,
0.917,
0.5457831,
0.917,
0.5391818,
0.917,
0.5411567,
0.917,
0.5382914,
0.917,
0.5445217,
0.917,
0.5457277,
0.917,
0.5458547,
0.917,
0.5454636,
0.917,
0.5436881,
0.917,
0.5462629,
0.917,
0.5439029,
0.917,
0.5446191,
0.917,
0.5464761,
0.917,
0.5441901,
0.917,
0.5438111,
0.917,
0.5461761,
0.917,
0.5465299,
0.917,
0.5036632,
0.917,
2045, 
0.5424535,
0.9175,
0.5282614,
0.9175,
0.5439547,
0.9175,
0.536659,
0.9175,
0.5207021,
0.9175,
0.523681,
0.9175,
0.5266556,
0.9175,
0.5441546,
0.9175,
0.5439125,
0.9175,
0.5461397,
0.9175,
0.5409455,
0.9175,
0.542424,
0.9175,
0.5383937,
0.9175,
0.5449848,
0.9175,
0.5461448,
0.9175,
0.5461997,
0.9175,
0.5460477,
0.9175,
0.5442389,
0.9175,
0.5466388,
0.9175,
0.5443879,
0.9175,
0.5448837,
0.9175,
0.5467257,
0.9175,
0.5443,
0.9175,
0.5439889,
0.9175,
0.5465808,
0.9175,
0.5468934,
0.9175,
0.5048832,
0.9175,
2046, 
0.5431784,
0.918,
0.5306153,
0.918,
0.5443848,
0.918,
0.5385511,
0.918,
0.5249348,
0.918,
0.5283646,
0.918,
0.5288706,
0.918,
0.5445431,
0.918,
0.5442988,
0.918,
0.5464899,
0.918,
0.5423093,
0.918,
0.5434122,
0.918,
0.5399418,
0.918,
0.5454504,
0.918,
0.5465233,
0.918,
0.5465286,
0.918,
0.5465486,
0.918,
0.5447487,
0.918,
0.5469778,
0.918,
0.544898,
0.918,
0.5451331,
0.918,
0.5469566,
0.918,
0.5445992,
0.918,
0.5443636,
0.918,
0.5466533,
0.918,
0.5472139,
0.918,
0.5061033,
0.918,
2047, 
0.5438026,
0.9185,
0.5330667,
0.9185,
0.5448229,
0.9185,
0.5402116,
0.9185,
0.5290154,
0.9185,
0.5325728,
0.9185,
0.5315479,
0.9185,
0.5449452,
0.9185,
0.5447006,
0.9185,
0.5468617,
0.9185,
0.543283,
0.9185,
0.5442811,
0.9185,
0.540062,
0.9185,
0.5460042,
0.9185,
0.5469396,
0.9185,
0.5468879,
0.9185,
0.5470623,
0.9185,
0.5452378,
0.9185,
0.5473698,
0.9185,
0.5454199,
0.9185,
0.5454176,
0.9185,
0.5472254,
0.9185,
0.5449359,
0.9185,
0.5447565,
0.9185,
0.5469114,
0.9185,
0.5475942,
0.9185,
0.5073233,
0.9185,
2048, 
0.5443648,
0.919,
0.535515,
0.919,
0.5452797,
0.919,
0.5416855,
0.919,
0.5327631,
0.919,
0.5364272,
0.919,
0.5343559,
0.919,
0.5454029,
0.919,
0.5451179,
0.919,
0.5472785,
0.919,
0.5440405,
0.919,
0.5450352,
0.919,
0.5416958,
0.919,
0.5465686,
0.919,
0.5473735,
0.919,
0.5473421,
0.919,
0.547551,
0.919,
0.5452532,
0.919,
0.5477899,
0.919,
0.5458802,
0.919,
0.545581,
0.919,
0.5474692,
0.919,
0.5453011,
0.919,
0.5451671,
0.919,
0.5472425,
0.919,
0.5480027,
0.919,
0.5085434,
0.919,
2049, 
0.5448715,
0.9195,
0.5386578,
0.9195,
0.54572,
0.9195,
0.5431582,
0.9195,
0.5362381,
0.9195,
0.5400009,
0.9195,
0.5371951,
0.9195,
0.5458061,
0.9195,
0.5455185,
0.9195,
0.5476769,
0.9195,
0.5446091,
0.9195,
0.545727,
0.9195,
0.5422523,
0.9195,
0.5470664,
0.9195,
0.5477867,
0.9195,
0.5477061,
0.9195,
0.5480396,
0.9195,
0.5455917,
0.9195,
0.5481905,
0.9195,
0.5463569,
0.9195,
0.5458719,
0.9195,
0.5477591,
0.9195,
0.545667,
0.9195,
0.5455651,
0.9195,
0.5475835,
0.9195,
0.5483992,
0.9195,
0.5097634,
0.9195,
2050, 
0.5453476,
0.92,
0.5420493,
0.92,
0.546151,
0.92,
0.5446222,
0.92,
0.5393773,
0.92,
0.5436163,
0.92,
0.5399216,
0.92,
0.5462127,
0.92,
0.5458992,
0.92,
0.5480757,
0.92,
0.5451446,
0.92,
0.5463085,
0.92,
0.5430562,
0.92,
0.5475546,
0.92,
0.54817,
0.92,
0.5480148,
0.92,
0.5484885,
0.92,
0.5461373,
0.92,
0.5485684,
0.92,
0.5467641,
0.92,
0.5462777,
0.92,
0.5481015,
0.92,
0.5458574,
0.92,
0.5459322,
0.92,
0.5479142,
0.92,
0.5487695,
0.92,
0.5109835,
0.92,
2051, 
0.5452152,
0.92,
0.5451423,
0.92,
0.5459862,
0.92,
0.5455907,
0.92,
0.5425394,
0.92,
0.5468808,
0.92,
0.5427619,
0.92,
0.5460358,
0.92,
0.5457028,
0.92,
0.5478899,
0.92,
0.5453318,
0.92,
0.5463524,
0.92,
0.544498,
0.92,
0.5474491,
0.92,
0.5479708,
0.92,
0.5478628,
0.92,
0.548338,
0.92,
0.5458577,
0.92,
0.5483801,
0.92,
0.5465264,
0.92,
0.5458603,
0.92,
0.5478463,
0.92,
0.546307,
0.92,
0.5457228,
0.92,
0.5477507,
0.92,
0.5485657,
0.92,
0.5113578,
0.92,
2052, 
0.5453536,
0.92,
0.545669,
0.92,
0.5460239,
0.92,
0.5456448,
0.92,
0.5425934,
0.92,
0.5471163,
0.92,
0.5427698,
0.92,
0.5460715,
0.92,
0.5457589,
0.92,
0.5479805,
0.92,
0.5453065,
0.92,
0.5464499,
0.92,
0.5441571,
0.92,
0.5476071,
0.92,
0.5480273,
0.92,
0.5479801,
0.92,
0.5484205,
0.92,
0.5459294,
0.92,
0.5484411,
0.92,
0.5465928,
0.92,
0.5458862,
0.92,
0.5478981,
0.92,
0.5465342,
0.92,
0.5457862,
0.92,
0.5477514,
0.92,
0.5486014,
0.92,
0.511732,
0.92,
2053, 
0.5455075,
0.92,
0.5460749,
0.92,
0.5460852,
0.92,
0.5457221,
0.92,
0.5427254,
0.92,
0.5473363,
0.92,
0.5428627,
0.92,
0.5461129,
0.92,
0.545845,
0.92,
0.5480831,
0.92,
0.5452796,
0.92,
0.5465306,
0.92,
0.543956,
0.92,
0.5476998,
0.92,
0.5480875,
0.92,
0.548104,
0.92,
0.5482799,
0.92,
0.5460336,
0.92,
0.5485114,
0.92,
0.5466362,
0.92,
0.545947,
0.92,
0.5478361,
0.92,
0.5467634,
0.92,
0.5458526,
0.92,
0.5477719,
0.92,
0.5486487,
0.92,
0.5121064,
0.92,
2054, 
0.5456609,
0.92,
0.5464539,
0.92,
0.5461421,
0.92,
0.5457766,
0.92,
0.5428553,
0.92,
0.547526,
0.92,
0.5429623,
0.92,
0.5461707,
0.92,
0.545921,
0.92,
0.5481989,
0.92,
0.5452744,
0.92,
0.5466239,
0.92,
0.543825,
0.92,
0.5478439,
0.92,
0.5481398,
0.92,
0.5482311,
0.92,
0.5482586,
0.92,
0.5461143,
0.92,
0.5485799,
0.92,
0.54662,
0.92,
0.5460055,
0.92,
0.5478115,
0.92,
0.5468963,
0.92,
0.5458123,
0.92,
0.5477924,
0.92,
0.5486946,
0.92,
0.5124807,
0.92,
2055, 
0.5458119,
0.92,
0.5467921,
0.92,
0.5462008,
0.92,
0.545866,
0.92,
0.5430138,
0.92,
0.5476912,
0.92,
0.5430968,
0.92,
0.5462349,
0.92,
0.5459803,
0.92,
0.5483223,
0.92,
0.5453013,
0.92,
0.5467478,
0.92,
0.5437769,
0.92,
0.5479913,
0.92,
0.548197,
0.92,
0.5483386,
0.92,
0.5484028,
0.92,
0.5462305,
0.92,
0.5486522,
0.92,
0.5466156,
0.92,
0.5460622,
0.92,
0.547834,
0.92,
0.5470222,
0.92,
0.5458073,
0.92,
0.5478203,
0.92,
0.5487514,
0.92,
0.512855,
0.92,
2056, 
0.5459775,
0.92,
0.5470893,
0.92,
0.5462545,
0.92,
0.545946,
0.92,
0.5431555,
0.92,
0.5478573,
0.92,
0.5432206,
0.92,
0.5463123,
0.92,
0.5460471,
0.92,
0.5484596,
0.92,
0.5453544,
0.92,
0.5469733,
0.92,
0.5437587,
0.92,
0.5481535,
0.92,
0.5482719,
0.92,
0.5484832,
0.92,
0.5485522,
0.92,
0.5463959,
0.92,
0.5487495,
0.92,
0.5466656,
0.92,
0.5461357,
0.92,
0.5478753,
0.92,
0.54719,
0.92,
0.5458929,
0.92,
0.5478654,
0.92,
0.5488319,
0.92,
0.5132293,
0.92,
2057, 
0.5468627,
0.92,
0.5473841,
0.92,
0.5463676,
0.92,
0.5460784,
0.92,
0.5433218,
0.92,
0.548023,
0.92,
0.5433732,
0.92,
0.5464473,
0.92,
0.5461529,
0.92,
0.5486612,
0.92,
0.5454694,
0.92,
0.547634,
0.92,
0.543754,
0.92,
0.5492489,
0.92,
0.5477291,
0.92,
0.5494108,
0.92,
0.5487564,
0.92,
0.5466212,
0.92,
0.5490505,
0.92,
0.5469544,
0.92,
0.5464004,
0.92,
0.5480552,
0.92,
0.5475267,
0.92,
0.5463036,
0.92,
0.5479786,
0.92,
0.5489831,
0.92,
0.5136036,
0.92,
2058, 
0.5477175,
0.92,
0.5476885,
0.92,
0.5465439,
0.92,
0.5462771,
0.92,
0.5434592,
0.92,
0.5481598,
0.92,
0.5435004,
0.92,
0.5465884,
0.92,
0.5462807,
0.92,
0.5487999,
0.92,
0.5455716,
0.92,
0.5481312,
0.92,
0.5439277,
0.92,
0.5501087,
0.92,
0.5476426,
0.92,
0.5501664,
0.92,
0.5489174,
0.92,
0.5471731,
0.92,
0.5492838,
0.92,
0.5471164,
0.92,
0.5466005,
0.92,
0.548208,
0.92,
0.5478017,
0.92,
0.546491,
0.92,
0.5483866,
0.92,
0.5490958,
0.92,
0.5139779,
0.92,
2059, 
0.5485309,
0.92,
0.5478939,
0.92,
0.5466616,
0.92,
0.5463755,
0.92,
0.5436847,
0.92,
0.5482711,
0.92,
0.5437166,
0.92,
0.5467168,
0.92,
0.546372,
0.92,
0.5488834,
0.92,
0.5457365,
0.92,
0.5487898,
0.92,
0.5445827,
0.92,
0.5507869,
0.92,
0.5477729,
0.92,
0.550752,
0.92,
0.5490291,
0.92,
0.5474339,
0.92,
0.5494128,
0.92,
0.5472947,
0.92,
0.5468347,
0.92,
0.5483882,
0.92,
0.5480109,
0.92,
0.5466498,
0.92,
0.5486239,
0.92,
0.5491712,
0.92,
0.5143523,
0.92,
2060, 
0.5492153,
0.92,
0.5482976,
0.92,
0.5465305,
0.92,
0.5463398,
0.92,
0.5437672,
0.92,
0.5484813,
0.92,
0.5437928,
0.92,
0.5468222,
0.92,
0.5466123,
0.92,
0.5489331,
0.92,
0.5458315,
0.92,
0.5493882,
0.92,
0.5451388,
0.92,
0.5513226,
0.92,
0.5479794,
0.92,
0.5512227,
0.92,
0.5491039,
0.92,
0.5476624,
0.92,
0.5496024,
0.92,
0.5473971,
0.92,
0.546918,
0.92,
0.5484819,
0.92,
0.5482708,
0.92,
0.5467798,
0.92,
0.5487931,
0.92,
0.5492102,
0.92,
0.5147266,
0.92,
2061, 
0.5498114,
0.92,
0.5487351,
0.92,
0.5467056,
0.92,
0.5464921,
0.92,
0.5438287,
0.92,
0.5487113,
0.92,
0.5438496,
0.92,
0.5469505,
0.92,
0.5469074,
0.92,
0.5491961,
0.92,
0.5459254,
0.92,
0.5500062,
0.92,
0.5460622,
0.92,
0.5517712,
0.92,
0.5483522,
0.92,
0.5516208,
0.92,
0.5493097,
0.92,
0.5479473,
0.92,
0.5499336,
0.92,
0.5474989,
0.92,
0.5469742,
0.92,
0.5485735,
0.92,
0.5485129,
0.92,
0.5469157,
0.92,
0.5490606,
0.92,
0.5493917,
0.92,
0.5151009,
0.92,
2062, 
0.5500767,
0.92,
0.549014,
0.92,
0.5468207,
0.92,
0.5466248,
0.92,
0.5440165,
0.92,
0.548831,
0.92,
0.544033,
0.92,
0.5470797,
0.92,
0.5470401,
0.92,
0.5494007,
0.92,
0.5460474,
0.92,
0.5503106,
0.92,
0.5468869,
0.92,
0.5518441,
0.92,
0.5487151,
0.92,
0.5517106,
0.92,
0.5494204,
0.92,
0.5481455,
0.92,
0.5501018,
0.92,
0.5475777,
0.92,
0.547092,
0.92,
0.5486379,
0.92,
0.5486542,
0.92,
0.5470316,
0.92,
0.54923,
0.92,
0.5494854,
0.92,
0.5154752,
0.92,
2063, 
0.5503477,
0.92,
0.5492877,
0.92,
0.546928,
0.92,
0.5467587,
0.92,
0.5442117,
0.92,
0.5489702,
0.92,
0.5442246,
0.92,
0.5472208,
0.92,
0.5471979,
0.92,
0.5496261,
0.92,
0.5462068,
0.92,
0.5506329,
0.92,
0.5475082,
0.92,
0.5519571,
0.92,
0.5491125,
0.92,
0.5518323,
0.92,
0.5495322,
0.92,
0.5483326,
0.92,
0.5502859,
0.92,
0.5476753,
0.92,
0.5472369,
0.92,
0.5487196,
0.92,
0.5488149,
0.92,
0.5471647,
0.92,
0.5493869,
0.92,
0.5495832,
0.92,
0.5158495,
0.92,
2064, 
0.550584,
0.92,
0.5495479,
0.92,
0.5470958,
0.92,
0.5469357,
0.92,
0.5444006,
0.92,
0.5490997,
0.92,
0.5444107,
0.92,
0.5473534,
0.92,
0.547358,
0.92,
0.5498465,
0.92,
0.546513,
0.92,
0.5509071,
0.92,
0.5475647,
0.92,
0.5520591,
0.92,
0.549504,
0.92,
0.5519504,
0.92,
0.5496197,
0.92,
0.5484908,
0.92,
0.5504578,
0.92,
0.5477861,
0.92,
0.5473689,
0.92,
0.5487959,
0.92,
0.5487111,
0.92,
0.5472988,
0.92,
0.5495287,
0.92,
0.5496594,
0.92,
0.5162238,
0.92,
2065, 
0.5508136,
0.92,
0.5497981,
0.92,
0.5472377,
0.92,
0.5470906,
0.92,
0.544597,
0.92,
0.5492282,
0.92,
0.5446048,
0.92,
0.5474914,
0.92,
0.5475222,
0.92,
0.5500642,
0.92,
0.5467653,
0.92,
0.5511536,
0.92,
0.5477526,
0.92,
0.552165,
0.92,
0.5498909,
0.92,
0.5520769,
0.92,
0.5497465,
0.92,
0.5486693,
0.92,
0.5506389,
0.92,
0.5479212,
0.92,
0.5475058,
0.92,
0.5488657,
0.92,
0.5486874,
0.92,
0.5474636,
0.92,
0.5494034,
0.92,
0.5497779,
0.92,
0.5165982,
0.92,
2066, 
0.5509486,
0.92,
0.5500343,
0.92,
0.5473856,
0.92,
0.5472636,
0.92,
0.5448113,
0.92,
0.549354,
0.92,
0.5448174,
0.92,
0.5476393,
0.92,
0.5476925,
0.92,
0.5502857,
0.92,
0.5470337,
0.92,
0.5513827,
0.92,
0.5479178,
0.92,
0.5522817,
0.92,
0.5502651,
0.92,
0.5522098,
0.92,
0.5498769,
0.92,
0.5488456,
0.92,
0.5508288,
0.92,
0.548048,
0.92,
0.5476527,
0.92,
0.5489379,
0.92,
0.5486255,
0.92,
0.5476038,
0.92,
0.5493953,
0.92,
0.5499017,
0.92,
0.5169725,
0.92,
2067, 
0.5509184,
0.92,
0.5500628,
0.92,
0.5475652,
0.92,
0.5474774,
0.92,
0.5449337,
0.92,
0.5494373,
0.92,
0.5449386,
0.92,
0.5478294,
0.92,
0.5478544,
0.92,
0.5501911,
0.92,
0.547273,
0.92,
0.551371,
0.92,
0.5478129,
0.92,
0.5521803,
0.92,
0.5501555,
0.92,
0.5521355,
0.92,
0.5499277,
0.92,
0.548952,
0.92,
0.5508925,
0.92,
0.5481317,
0.92,
0.5478347,
0.92,
0.5491176,
0.92,
0.5485117,
0.92,
0.5477085,
0.92,
0.5493037,
0.92,
0.5499465,
0.92,
0.5173468,
0.92,
2068, 
0.5508813,
0.92,
0.5500786,
0.92,
0.5476987,
0.92,
0.5476572,
0.92,
0.5449908,
0.92,
0.5495166,
0.92,
0.5449949,
0.92,
0.5480039,
0.92,
0.5480002,
0.92,
0.5502609,
0.92,
0.5474492,
0.92,
0.5513395,
0.92,
0.547577,
0.92,
0.5520796,
0.92,
0.5500335,
0.92,
0.5519347,
0.92,
0.5499776,
0.92,
0.5490505,
0.92,
0.5508881,
0.92,
0.5482135,
0.92,
0.5480016,
0.92,
0.5492757,
0.92,
0.5484638,
0.92,
0.5478255,
0.92,
0.549237,
0.92,
0.549992,
0.92,
0.5177211,
0.92,
2069, 
0.5509138,
0.92,
0.5499541,
0.92,
0.5478135,
0.92,
0.5478249,
0.92,
0.5450925,
0.92,
0.5495975,
0.92,
0.5450958,
0.92,
0.5481396,
0.92,
0.5481313,
0.92,
0.550501,
0.92,
0.5475879,
0.92,
0.5512609,
0.92,
0.5472209,
0.92,
0.5519733,
0.92,
0.5498991,
0.92,
0.5518369,
0.92,
0.550066,
0.92,
0.5491726,
0.92,
0.550901,
0.92,
0.5482908,
0.92,
0.5481528,
0.92,
0.5494148,
0.92,
0.5486693,
0.92,
0.5479503,
0.92,
0.5498124,
0.92,
0.5500773,
0.92,
0.5180954,
0.92,
2070, 
0.5508821,
0.92,
0.5499563,
0.92,
0.5479227,
0.92,
0.5479844,
0.92,
0.5451948,
0.92,
0.5496678,
0.92,
0.5451974,
0.92,
0.5482715,
0.92,
0.5482475,
0.92,
0.550735,
0.92,
0.5475984,
0.92,
0.5511488,
0.92,
0.5473827,
0.92,
0.5518458,
0.92,
0.5497464,
0.92,
0.5517218,
0.92,
0.5502694,
0.92,
0.5493761,
0.92,
0.5508742,
0.92,
0.548351,
0.92,
0.5482624,
0.92,
0.5495256,
0.92,
0.5489497,
0.92,
0.5480685,
0.92,
0.550032,
0.92,
0.5502788,
0.92,
0.5184697,
0.92,
2071, 
0.550952,
0.92,
0.5499473,
0.92,
0.5480211,
0.92,
0.5481376,
0.92,
0.5453038,
0.92,
0.5497363,
0.92,
0.5453058,
0.92,
0.5483942,
0.92,
0.5483491,
0.92,
0.5509683,
0.92,
0.5476589,
0.92,
0.5510181,
0.92,
0.5474743,
0.92,
0.5517113,
0.92,
0.5495679,
0.92,
0.5515873,
0.92,
0.5503995,
0.92,
0.5495208,
0.92,
0.5508137,
0.92,
0.5484489,
0.92,
0.5483178,
0.92,
0.5496199,
0.92,
0.549119,
0.92,
0.5481778,
0.92,
0.5501851,
0.92,
0.5504072,
0.92,
0.5188441,
0.92,
2072, 
0.5510772,
0.92,
0.5500806,
0.92,
0.5481761,
0.92,
0.5483278,
0.92,
0.5454874,
0.92,
0.5498648,
0.92,
0.545489,
0.92,
0.5485163,
0.92,
0.5484406,
0.92,
0.5511199,
0.92,
0.5477852,
0.92,
0.5511202,
0.92,
0.5475692,
0.92,
0.5518023,
0.92,
0.5497372,
0.92,
0.5517141,
0.92,
0.5505114,
0.92,
0.5496519,
0.92,
0.5509309,
0.92,
0.5485777,
0.92,
0.5484068,
0.92,
0.5496831,
0.92,
0.5493428,
0.92,
0.548324,
0.92,
0.5503085,
0.92,
0.5505176,
0.92,
0.5192183,
0.92,
2073, 
0.5512217,
0.92,
0.5502235,
0.92,
0.5483159,
0.92,
0.5485042,
0.92,
0.5457038,
0.92,
0.5499976,
0.92,
0.545705,
0.92,
0.5486314,
0.92,
0.5485418,
0.92,
0.5512813,
0.92,
0.5479629,
0.92,
0.5512301,
0.92,
0.5475925,
0.92,
0.5518996,
0.92,
0.5499105,
0.92,
0.5518432,
0.92,
0.5506317,
0.92,
0.5497923,
0.92,
0.5510595,
0.92,
0.5487047,
0.92,
0.5484866,
0.92,
0.5497038,
0.92,
0.5494795,
0.92,
0.5484712,
0.92,
0.5504388,
0.92,
0.5506366,
0.92,
0.5195926,
0.92,
2074, 
0.5513639,
0.92,
0.5503747,
0.92,
0.5484756,
0.92,
0.548698,
0.92,
0.5459066,
0.92,
0.5501351,
0.92,
0.5459076,
0.92,
0.5487876,
0.92,
0.548646,
0.92,
0.5514439,
0.92,
0.5481929,
0.92,
0.5513466,
0.92,
0.5475164,
0.92,
0.552001,
0.92,
0.5500881,
0.92,
0.5519804,
0.92,
0.5507542,
0.92,
0.5499364,
0.92,
0.5512013,
0.92,
0.5488154,
0.92,
0.548564,
0.92,
0.5497028,
0.92,
0.5495352,
0.92,
0.5486247,
0.92,
0.5505701,
0.92,
0.5507582,
0.92,
0.519967,
0.92,
2075, 
0.5515094,
0.92,
0.550532,
0.92,
0.5486414,
0.92,
0.5488999,
0.92,
0.5461167,
0.92,
0.5502731,
0.92,
0.5461175,
0.92,
0.5489321,
0.92,
0.5487565,
0.92,
0.5516141,
0.92,
0.548449,
0.92,
0.5514709,
0.92,
0.5474055,
0.92,
0.5521124,
0.92,
0.5502688,
0.92,
0.5521218,
0.92,
0.5508834,
0.92,
0.5500872,
0.92,
0.551363,
0.92,
0.5489174,
0.92,
0.5486491,
0.92,
0.5497189,
0.92,
0.549522,
0.92,
0.5487765,
0.92,
0.550707,
0.92,
0.5508866,
0.92,
0.5203413,
0.92,
2076, 
0.5516597,
0.92,
0.5506963,
0.92,
0.5488166,
0.92,
0.5491114,
0.92,
0.5463335,
0.92,
0.5504214,
0.92,
0.5463341,
0.92,
0.5490819,
0.92,
0.5488725,
0.92,
0.5518793,
0.92,
0.5487009,
0.92,
0.5516039,
0.92,
0.5473527,
0.92,
0.5522314,
0.92,
0.5504534,
0.92,
0.5522687,
0.92,
0.5509639,
0.92,
0.5502455,
0.92,
0.5515245,
0.92,
0.5490133,
0.92,
0.5487481,
0.92,
0.5497516,
0.92,
0.5495313,
0.92,
0.5489389,
0.92,
0.5508509,
0.92,
0.5510231,
0.92,
0.5207156,
0.92,
2077, 
0.5517792,
0.92,
0.5509214,
0.92,
0.5489166,
0.92,
0.5492662,
0.92,
0.5464578,
0.92,
0.5505649,
0.92,
0.5464582,
0.92,
0.5492057,
0.92,
0.5490108,
0.92,
0.5520582,
0.92,
0.5489037,
0.92,
0.5517116,
0.92,
0.5472835,
0.92,
0.5523313,
0.92,
0.5505437,
0.92,
0.5523755,
0.92,
0.5510307,
0.92,
0.550304,
0.92,
0.5516796,
0.92,
0.5490894,
0.92,
0.5488383,
0.92,
0.5497887,
0.92,
0.549554,
0.92,
0.5490707,
0.92,
0.5509853,
0.92,
0.5511482,
0.92,
0.5210899,
0.92,
2078, 
0.551841,
0.92,
0.5510756,
0.92,
0.5490209,
0.92,
0.549429,
0.92,
0.5465556,
0.92,
0.5507092,
0.92,
0.5465561,
0.92,
0.5493503,
0.92,
0.5491496,
0.92,
0.5522416,
0.92,
0.5490659,
0.92,
0.551823,
0.92,
0.5472297,
0.92,
0.5524365,
0.92,
0.5506454,
0.92,
0.5524877,
0.92,
0.5511275,
0.92,
0.550328,
0.92,
0.5518384,
0.92,
0.5491814,
0.92,
0.5489376,
0.92,
0.5498466,
0.92,
0.5495973,
0.92,
0.5492072,
0.92,
0.5511218,
0.92,
0.551276,
0.92,
0.5214642,
0.92,
2079, 
0.5519351,
0.92,
0.5512177,
0.92,
0.549132,
0.92,
0.5496108,
0.92,
0.546672,
0.92,
0.5508515,
0.92,
0.5466723,
0.92,
0.5494943,
0.92,
0.5492901,
0.92,
0.5524262,
0.92,
0.5491794,
0.92,
0.5519341,
0.92,
0.5472177,
0.92,
0.5525437,
0.92,
0.5507517,
0.92,
0.5525934,
0.92,
0.5511861,
0.92,
0.5504169,
0.92,
0.5519847,
0.92,
0.5492781,
0.92,
0.549044,
0.92,
0.5499588,
0.92,
0.5496529,
0.92,
0.5493239,
0.92,
0.5512729,
0.92,
0.5513673,
0.92,
0.5218385,
0.92,
2080, 
0.5520346,
0.92,
0.5513646,
0.92,
0.5492761,
0.92,
0.5498102,
0.92,
0.546827,
0.92,
0.550998,
0.92,
0.5468272,
0.92,
0.5496393,
0.92,
0.5494308,
0.92,
0.5526145,
0.92,
0.5493325,
0.92,
0.5520486,
0.92,
0.5472594,
0.92,
0.5526541,
0.92,
0.550864,
0.92,
0.5527146,
0.92,
0.5512556,
0.92,
0.5505182,
0.92,
0.5521001,
0.92,
0.5493386,
0.92,
0.5491545,
0.92,
0.5500754,
0.92,
0.5496252,
0.92,
0.5493405,
0.92,
0.5514196,
0.92,
0.5513358,
0.92,
0.5222129,
0.92,
2081, 
0.5521351,
0.92,
0.5515175,
0.92,
0.5494285,
0.92,
0.5500038,
0.92,
0.5469877,
0.92,
0.5511436,
0.92,
0.5469878,
0.92,
0.5497878,
0.92,
0.5495744,
0.92,
0.5530204,
0.92,
0.5495349,
0.92,
0.5521703,
0.92,
0.5473086,
0.92,
0.552774,
0.92,
0.5509883,
0.92,
0.5528405,
0.92,
0.5515267,
0.92,
0.5506136,
0.92,
0.5521684,
0.92,
0.5494498,
0.92,
0.5492688,
0.92,
0.5502017,
0.92,
0.5497077,
0.92,
0.5494785,
0.92,
0.5515814,
0.92,
0.5512696,
0.92,
0.5225872,
0.92,
2082, 
0.5522945,
0.92,
0.5517102,
0.92,
0.5495803,
0.92,
0.5501993,
0.92,
0.5471702,
0.92,
0.5512916,
0.92,
0.5471703,
0.92,
0.5499368,
0.92,
0.5496982,
0.92,
0.553214,
0.92,
0.549722,
0.92,
0.5523396,
0.92,
0.5474355,
0.92,
0.5529518,
0.92,
0.5510939,
0.92,
0.5529953,
0.92,
0.5517506,
0.92,
0.5507273,
0.92,
0.5522841,
0.92,
0.5495848,
0.92,
0.549385,
0.92,
0.5503406,
0.92,
0.5498169,
0.92,
0.5496329,
0.92,
0.5517458,
0.92,
0.5511917,
0.92,
0.5229615,
0.92,
2083, 
0.5524526,
0.92,
0.5519108,
0.92,
0.5497414,
0.92,
0.5504039,
0.92,
0.5473524,
0.92,
0.5514513,
0.92,
0.5473525,
0.92,
0.5500917,
0.92,
0.5497566,
0.92,
0.5534157,
0.92,
0.5499092,
0.92,
0.5525185,
0.92,
0.5475715,
0.92,
0.5531391,
0.92,
0.5512024,
0.92,
0.5531622,
0.92,
0.5519559,
0.92,
0.5508567,
0.92,
0.5524285,
0.92,
0.5497347,
0.92,
0.549511,
0.92,
0.5504897,
0.92,
0.5499455,
0.92,
0.5497978,
0.92,
0.5519156,
0.92,
0.5511718,
0.92,
0.5233358,
0.92,
2084, 
0.552619,
0.92,
0.552117,
0.92,
0.5498997,
0.92,
0.5506079,
0.92,
0.5475368,
0.92,
0.5516136,
0.92,
0.547537,
0.92,
0.5502704,
0.92,
0.5497808,
0.92,
0.5536202,
0.92,
0.5501062,
0.92,
0.5527067,
0.92,
0.5477179,
0.92,
0.5533273,
0.92,
0.5513223,
0.92,
0.553331,
0.92,
0.5521446,
0.92,
0.5509875,
0.92,
0.5525897,
0.92,
0.5498922,
0.92,
0.5496411,
0.92,
0.5506438,
0.92,
0.5500854,
0.92,
0.549967,
0.92,
0.5520763,
0.92,
0.5512037,
0.92,
0.5237101,
0.92,
2085, 
0.5527958,
0.92,
0.5523234,
0.92,
0.5500613,
0.92,
0.5508107,
0.92,
0.5477093,
0.92,
0.5517724,
0.92,
0.5477093,
0.92,
0.5504266,
0.92,
0.5499956,
0.92,
0.5538241,
0.92,
0.5502886,
0.92,
0.5528881,
0.92,
0.5478616,
0.92,
0.5535153,
0.92,
0.551446,
0.92,
0.5535005,
0.92,
0.5523143,
0.92,
0.5511074,
0.92,
0.5527539,
0.92,
0.5500478,
0.92,
0.5497688,
0.92,
0.5507608,
0.92,
0.5502314,
0.92,
0.5501365,
0.92,
0.5522403,
0.92,
0.551269,
0.92,
0.5240844,
0.92,
2086, 
0.5529784,
0.92,
0.5525324,
0.92,
0.5502216,
0.92,
0.5510132,
0.92,
0.547896,
0.92,
0.5519339,
0.92,
0.547896,
0.92,
0.5505775,
0.92,
0.549903,
0.92,
0.5540329,
0.92,
0.5504711,
0.92,
0.5530754,
0.92,
0.5480245,
0.92,
0.5537074,
0.92,
0.5515743,
0.92,
0.5536831,
0.92,
0.5524705,
0.92,
0.5512556,
0.92,
0.5529938,
0.92,
0.5502158,
0.92,
0.549902,
0.92,
0.5509144,
0.92,
0.5503893,
0.92,
0.5503137,
0.92,
0.5524327,
0.92,
0.5513875,
0.92,
0.5244588,
0.92,
2087, 
0.5531825,
0.92,
0.5527314,
0.92,
0.5504057,
0.92,
0.5512127,
0.92,
0.5480219,
0.92,
0.5520846,
0.92,
0.5480219,
0.92,
0.5507513,
0.92,
0.5500222,
0.92,
0.5543148,
0.92,
0.5505937,
0.92,
0.5532469,
0.92,
0.5481403,
0.92,
0.5538846,
0.92,
0.5517449,
0.92,
0.5538651,
0.92,
0.5525666,
0.92,
0.5514109,
0.92,
0.5532405,
0.92,
0.5503824,
0.92,
0.5500351,
0.92,
0.5510523,
0.92,
0.5505446,
0.92,
0.5504842,
0.92,
0.552632,
0.92,
0.5513921,
0.92,
0.5248331,
0.92,
2088, 
0.5533872,
0.92,
0.5529315,
0.92,
0.5505944,
0.92,
0.5514116,
0.92,
0.5481583,
0.92,
0.5522338,
0.92,
0.5481583,
0.92,
0.5509192,
0.92,
0.5501474,
0.92,
0.5545338,
0.92,
0.5506884,
0.92,
0.5534189,
0.92,
0.5482699,
0.92,
0.5540605,
0.92,
0.5519187,
0.92,
0.5540397,
0.92,
0.552623,
0.92,
0.5516282,
0.92,
0.5534776,
0.92,
0.5505376,
0.92,
0.5501725,
0.92,
0.5511895,
0.92,
0.5506763,
0.92,
0.5506274,
0.92,
0.5529004,
0.92,
0.5514451,
0.92,
0.5252074,
0.92,
2089, 
0.5535865,
0.92,
0.5531331,
0.92,
0.5507753,
0.92,
0.5515974,
0.92,
0.5483016,
0.92,
0.55237,
0.92,
0.5483016,
0.92,
0.5510935,
0.92,
0.5502751,
0.92,
0.5547448,
0.92,
0.5507948,
0.92,
0.5535874,
0.92,
0.5484074,
0.92,
0.5542316,
0.92,
0.5520868,
0.92,
0.554211,
0.92,
0.5527207,
0.92,
0.5518942,
0.92,
0.5537077,
0.92,
0.5507065,
0.92,
0.5503091,
0.92,
0.5513208,
0.92,
0.550832,
0.92,
0.5507932,
0.92,
0.5531902,
0.92,
0.5515309,
0.92,
0.5255817,
0.92,
2090, 
0.5537488,
0.92,
0.5534093,
0.92,
0.5509562,
0.92,
0.5517815,
0.92,
0.548476,
0.92,
0.55251,
0.92,
0.548476,
0.92,
0.5512595,
0.92,
0.5503996,
0.92,
0.5549626,
0.92,
0.5509262,
0.92,
0.5538082,
0.92,
0.5485736,
0.92,
0.5544031,
0.92,
0.5522563,
0.92,
0.554382,
0.92,
0.5527921,
0.92,
0.5520329,
0.92,
0.5539633,
0.92,
0.5508588,
0.92,
0.5503879,
0.92,
0.5514498,
0.92,
0.5509884,
0.92,
0.5509573,
0.92,
0.5533439,
0.92,
0.5516,
0.92,
0.525956,
0.92,
2091, 
0.5539507,
0.92,
0.5536132,
0.92,
0.5511451,
0.92,
0.5519683,
0.92,
0.5486475,
0.92,
0.5526562,
0.92,
0.5486475,
0.92,
0.551417,
0.92,
0.5503139,
0.92,
0.5551736,
0.92,
0.5510115,
0.92,
0.5540152,
0.92,
0.5487383,
0.92,
0.5545788,
0.92,
0.5524552,
0.92,
0.5545507,
0.92,
0.5525285,
0.92,
0.5521448,
0.92,
0.5542051,
0.92,
0.5509836,
0.92,
0.5505177,
0.92,
0.551567,
0.92,
0.551085,
0.92,
0.5510529,
0.92,
0.5534686,
0.92,
0.5516802,
0.92,
0.5263303,
0.92,
2092, 
0.5541548,
0.92,
0.5538027,
0.92,
0.5513402,
0.92,
0.5521821,
0.92,
0.5488209,
0.92,
0.5528519,
0.92,
0.5488209,
0.92,
0.5515687,
0.92,
0.5504212,
0.92,
0.5554225,
0.92,
0.5511389,
0.92,
0.5542405,
0.92,
0.5489213,
0.92,
0.5547636,
0.92,
0.5526524,
0.92,
0.5547096,
0.92,
0.5524408,
0.92,
0.5522462,
0.92,
0.5544276,
0.92,
0.551106,
0.92,
0.5506521,
0.92,
0.5516819,
0.92,
0.5511887,
0.92,
0.5511427,
0.92,
0.553592,
0.92,
0.551773,
0.92,
0.5267046,
0.92,
2093, 
0.5543671,
0.92,
0.5540018,
0.92,
0.5515292,
0.92,
0.5524005,
0.92,
0.5490126,
0.92,
0.5530576,
0.92,
0.5490126,
0.92,
0.5517193,
0.92,
0.5505171,
0.92,
0.5556372,
0.92,
0.5513,
0.92,
0.5544583,
0.92,
0.5491168,
0.92,
0.5549465,
0.92,
0.5528066,
0.92,
0.5548754,
0.92,
0.5524515,
0.92,
0.5523401,
0.92,
0.5546486,
0.92,
0.5512208,
0.92,
0.5507956,
0.92,
0.551819,
0.92,
0.5512872,
0.92,
0.5512144,
0.92,
0.5537075,
0.92,
0.5518778,
0.92,
0.527079,
0.92,
2094, 
0.5545841,
0.92,
0.5541975,
0.92,
0.5517244,
0.92,
0.5525694,
0.92,
0.5491244,
0.92,
0.5531843,
0.92,
0.5491245,
0.92,
0.551846,
0.92,
0.5506179,
0.92,
0.5558371,
0.92,
0.5513412,
0.92,
0.5546741,
0.92,
0.5492553,
0.92,
0.5551407,
0.92,
0.5529206,
0.92,
0.5550407,
0.92,
0.552515,
0.92,
0.5524318,
0.92,
0.5548584,
0.92,
0.5513335,
0.92,
0.5509373,
0.92,
0.551958,
0.92,
0.5514417,
0.92,
0.5513419,
0.92,
0.5538312,
0.92,
0.5519711,
0.92,
0.5274532,
0.92,
2095, 
0.5548062,
0.92,
0.5544766,
0.92,
0.5523378,
0.92,
0.5528234,
0.92,
0.5493117,
0.92,
0.5533191,
0.92,
0.5493117,
0.92,
0.5520395,
0.92,
0.5507218,
0.92,
0.5561088,
0.92,
0.5514213,
0.92,
0.5548878,
0.92,
0.5495418,
0.92,
0.5553385,
0.92,
0.5530243,
0.92,
0.5552344,
0.92,
0.5526531,
0.92,
0.552545,
0.92,
0.5550869,
0.92,
0.5515127,
0.92,
0.551026,
0.92,
0.552098,
0.92,
0.551662,
0.92,
0.5515155,
0.92,
0.5539339,
0.92,
0.5521346,
0.92,
0.5278276,
0.92,
2096, 
0.554972,
0.92,
0.5546819,
0.92,
0.5527146,
0.92,
0.5530307,
0.92,
0.5494991,
0.92,
0.5534631,
0.92,
0.5494991,
0.92,
0.5522063,
0.92,
0.5508342,
0.92,
0.5564587,
0.92,
0.5515012,
0.92,
0.5550859,
0.92,
0.5499502,
0.92,
0.555518,
0.92,
0.5532229,
0.92,
0.5554408,
0.92,
0.5528683,
0.92,
0.5525399,
0.92,
0.5553201,
0.92,
0.5516963,
0.92,
0.5511106,
0.92,
0.5522438,
0.92,
0.5518926,
0.92,
0.5516888,
0.92,
0.5539914,
0.92,
0.5522799,
0.92,
0.5282019,
0.92,
2097, 
0.5555165,
0.92,
0.5551322,
0.92,
0.5529205,
0.92,
0.5533066,
0.92,
0.5497721,
0.92,
0.5536611,
0.92,
0.5497721,
0.92,
0.5524195,
0.92,
0.5510629,
0.92,
0.5569144,
0.92,
0.5516785,
0.92,
0.5554944,
0.92,
0.5506641,
0.92,
0.5559337,
0.92,
0.5537313,
0.92,
0.5558261,
0.92,
0.5532153,
0.92,
0.5526857,
0.92,
0.5557243,
0.92,
0.5520472,
0.92,
0.5513232,
0.92,
0.5523974,
0.92,
0.5523854,
0.92,
0.5519816,
0.92,
0.5541239,
0.92,
0.5524761,
0.92,
0.5285762,
0.92,
2098, 
0.5560182,
0.92,
0.5555663,
0.92,
0.5531324,
0.92,
0.5536606,
0.92,
0.5500222,
0.92,
0.5538601,
0.92,
0.5500222,
0.92,
0.5526191,
0.92,
0.5512869,
0.92,
0.5569981,
0.92,
0.5518226,
0.92,
0.5558623,
0.92,
0.5516938,
0.92,
0.5563048,
0.92,
0.5542055,
0.92,
0.5561743,
0.92,
0.5535432,
0.92,
0.5528501,
0.92,
0.5560893,
0.92,
0.5523956,
0.92,
0.5515103,
0.92,
0.5525387,
0.92,
0.5529306,
0.92,
0.5522593,
0.92,
0.5542032,
0.92,
0.5526622,
0.92,
0.5289505,
0.92,
2099, 
0.5564262,
0.92,
0.5557854,
0.92,
0.5533659,
0.92,
0.5539832,
0.92,
0.5502673,
0.92,
0.5540618,
0.92,
0.5502673,
0.92,
0.5528089,
0.92,
0.5515371,
0.92,
0.5568936,
0.92,
0.5521844,
0.92,
0.5562395,
0.92,
0.5527169,
0.92,
0.5566124,
0.92,
0.5546299,
0.92,
0.5564919,
0.92,
0.5538723,
0.92,
0.553178,
0.92,
0.5564222,
0.92,
0.5527465,
0.92,
0.5516691,
0.92,
0.5527679,
0.92,
0.5535238,
0.92,
0.5525255,
0.92,
0.5540375,
0.92,
0.5528415,
0.92,
0.5293248,
0.92,
2100, 
0.5567645,
0.92,
0.5560979,
0.92,
0.5529736,
0.92,
0.5542771,
0.92,
0.5504954,
0.92,
0.5542451,
0.92,
0.5504954,
0.92,
0.5529837,
0.92,
0.5517256,
0.92,
0.5569902,
0.92,
0.5526098,
0.92,
0.5565346,
0.92,
0.55366,
0.92,
0.5568941,
0.92,
0.5550148,
0.92,
0.556786,
0.92,
0.5541553,
0.92,
0.5533969,
0.92,
0.5567283,
0.92,
0.5531341,
0.92,
0.5518252,
0.92,
0.5529175,
0.92,
0.554162,
0.92,
0.5527775,
0.92,
0.5539482,
0.92,
0.5530092,
0.92,
0.5296991,
0.92];
